%OpenBCI Raw EEG Data
%
%Sample Rate = 250.0 Hz
%First Column = SampleIndex
%Other Columns = EEG data in microvolts followed by Accel Data (in G) interleaved with Aux Data
0, -148362.89, -147977.95, -153495.45, -154358.70, -153231.55, -152349.91, -152264.58, -154747.98, 0.01, 0.49, 0.18
1, -148393.52, -148008.91, -153527.44, -154390.36, -153263.00, -152381.61, -152294.81, -154778.81, 0.01, 0.49, 0.18
2, -148386.36, -148000.19, -153529.33, -154382.08, -153253.44, -152373.89, -152294.52, -154775.25, 0.02, 0.98, 0.37
3, -148346.91, -147959.83, -153489.17, -154341.11, -153212.39, -152332.86, -152255.41, -154735.22, 0.02, 0.98, 0.37
4, -148341.69, -147955.88, -153475.88, -154337.66, -153210.30, -152329.30, -152245.34, -154727.95, 0.02, 0.98, 0.37
5, -148375.03, -147989.67, -153508.69, -154373.23, -153246.34, -152365.00, -152278.05, -154761.95, 0.02, 0.98, 0.37
6, -148377.95, -147991.31, -153519.16, -154374.42, -153246.02, -152366.83, -152285.94, -154767.14, 0.02, 0.98, 0.37
7, -148342.56, -147954.19, -153484.69, -154336.20, -153207.23, -152329.06, -152251.22, -154731.16, 0.01, 0.98, 0.38
8, -148329.05, -147942.97, -153462.42, -154322.98, -153195.45, -152315.39, -152231.53, -154714.03, 0.01, 0.98, 0.38
9, -148358.33, -147973.39, -153487.88, -154353.70, -153226.95, -152345.94, -152257.00, -154742.75, 0.01, 0.98, 0.38
10, -148372.89, -147986.56, -153509.78, -154367.31, -153239.70, -152359.77, -152276.23, -154760.05, 0.01, 0.98, 0.38
11, -148341.23, -147952.94, -153483.45, -154334.59, -153206.41, -152327.16, -152249.30, -154730.33, 0.01, 0.98, 0.38
12, -148319.73, -147931.75, -153455.89, -154314.67, -153187.56, -152306.84, -152224.19, -154707.61, 0.02, 0.99, 0.38
13, -148342.63, -147956.92, -153474.22, -154340.42, -153214.00, -152332.08, -152243.52, -154730.30, 0.02, 0.99, 0.38
14, -148365.78, -147978.69, -153502.59, -154362.34, -153234.66, -152354.22, -152269.27, -154755.00, 0.02, 0.99, 0.38
15, -148340.34, -147952.41, -153482.73, -154334.19, -153205.36, -152326.22, -152248.09, -154730.30, 0.02, 0.99, 0.38
16, -148312.41, -147923.70, -153448.39, -154305.44, -153177.42, -152297.11, -152215.58, -154699.14, 0.02, 0.99, 0.38
17, -148331.52, -147943.98, -153460.19, -154326.19, -153199.09, -152317.98, -152228.67, -154716.31, 0.02, 0.98, 0.38
18, -148359.30, -147971.69, -153493.45, -154354.73, -153226.95, -152346.63, -152259.34, -154745.97, 0.02, 0.98, 0.38
19, -148338.16, -147950.75, -153481.63, -154332.95, -153204.23, -152325.09, -152245.44, -154728.22, 0.02, 0.98, 0.38
20, -148303.70, -147917.97, -153443.52, -154298.69, -153170.63, -152290.98, -152209.72, -154693.44, 0.02, 0.98, 0.38
21, -148312.30, -147927.64, -153444.45, -154309.84, -153182.84, -152302.03, -152212.94, -154700.59, 0.02, 0.98, 0.38
22, -148344.30, -147959.09, -153479.61, -154342.61, -153215.25, -152335.02, -152246.36, -154734.06, 0.02, 0.98, 0.38
23, -148336.70, -147947.20, -153477.94, -154330.50, -153202.00, -152323.36, -152242.70, -154727.02, 0.01, 0.99, 0.38
24, -148300.95, -147912.69, -153440.41, -154294.11, -153165.92, -152286.92, -152206.80, -154690.77, 0.01, 0.99, 0.38
25, -148301.47, -147915.84, -153433.88, -154297.34, -153170.78, -152289.83, -152202.67, -154689.69, 0.01, 0.99, 0.38
26, -148337.19, -147950.66, -153469.44, -154332.95, -153206.16, -152325.23, -152236.23, -154724.73, 0.01, 0.99, 0.38
27, -148336.72, -147949.13, -153477.63, -154330.75, -153202.67, -152323.13, -152241.25, -154726.97, 0.01, 0.99, 0.38
28, -148299.45, -147911.72, -153441.72, -154293.03, -153165.53, -152285.58, -152206.64, -154690.77, 0.01, 0.98, 0.38
29, -148292.02, -147905.17, -153426.59, -154287.84, -153161.44, -152279.88, -152194.30, -154681.38, 0.01, 0.98, 0.38
30, -148325.08, -147939.91, -153459.27, -154323.86, -153197.33, -152315.69, -152226.23, -154715.47, 0.01, 0.98, 0.38
31, -148335.53, -147948.98, -153476.59, -154332.11, -153204.13, -152324.42, -152241.13, -154727.69, 0.01, 0.98, 0.38
32, -148300.67, -147912.73, -153443.53, -154294.94, -153166.67, -152287.59, -152208.73, -154692.63, 0.01, 0.98, 0.38
33, -148284.31, -147898.05, -153418.61, -154279.09, -153151.95, -152271.41, -152187.25, -154673.31, 0.02, 0.98, 0.38
34, -148313.66, -147928.33, -153443.11, -154309.64, -153182.53, -152301.81, -152211.95, -154701.45, 0.02, 0.98, 0.38
35, -148327.53, -147940.95, -153464.66, -154323.28, -153194.52, -152315.78, -152230.19, -154718.33, 0.02, 0.98, 0.38
36, -148295.19, -147906.97, -153437.81, -154289.22, -153159.56, -152281.89, -152202.05, -154687.08, 0.02, 0.98, 0.38
37, -148268.84, -147880.41, -153404.84, -154263.38, -153134.50, -152255.83, -152171.00, -154658.20, 0.02, 0.98, 0.38
38, -148294.63, -147908.19, -153425.98, -154292.00, -153164.30, -152284.28, -152193.56, -154683.81, 0.02, 0.99, 0.38
39, -148316.78, -147932.13, -153455.03, -154314.52, -153185.94, -152306.84, -152220.14, -154708.69, 0.02, 0.99, 0.38
40, -148289.67, -147903.64, -153434.30, -154285.30, -153155.75, -152277.77, -152198.25, -154683.25, 0.02, 0.99, 0.38
41, -148260.81, -147873.53, -153398.77, -154255.23, -153127.02, -152247.69, -152165.48, -154651.69, 0.02, 0.99, 0.38
42, -148277.63, -147891.19, -153409.03, -154274.47, -153147.48, -152267.03, -152177.28, -154667.30, 0.02, 0.99, 0.38
43, -148305.34, -147919.92, -153441.56, -154302.84, -153175.52, -152295.48, -152208.11, -154697.17, 0.02, 0.98, 0.38
44, -148287.45, -147900.30, -153430.77, -154282.52, -153154.02, -152275.30, -152195.97, -154680.69, 0.02, 0.98, 0.38
45, -148253.42, -147866.16, -153393.02, -154248.41, -153120.19, -152240.83, -152159.67, -154644.50, 0.02, 0.98, 0.38
46, -148261.95, -147874.80, -153392.39, -154257.70, -153130.59, -152250.00, -152160.67, -154649.61, 0.02, 0.98, 0.38
47, -148295.02, -147907.95, -153427.78, -154291.09, -153163.47, -152283.55, -152194.16, -154683.70, 0.02, 0.98, 0.38
48, -148286.86, -147899.59, -153428.88, -154281.77, -153152.81, -152274.63, -152193.06, -154678.80, 0.02, 0.98, 0.38
49, -148252.72, -147864.09, -153392.97, -154246.17, -153117.80, -152239.38, -152158.42, -154643.64, 0.02, 0.98, 0.38
50, -148252.56, -147864.41, -153385.47, -154248.09, -153121.48, -152241.06, -152153.13, -154641.30, 0.02, 0.98, 0.38
51, -148283.05, -147897.75, -153416.16, -154279.42, -153153.05, -152272.19, -152182.98, -154671.55, 0.02, 0.98, 0.38
52, -148282.86, -147896.66, -153423.69, -154276.81, -153149.16, -152270.00, -152187.66, -154672.88, 0.02, 0.98, 0.38
53, -148243.06, -147857.14, -153386.42, -154237.17, -153109.25, -152230.80, -152150.70, -154635.38, 0.02, 0.98, 0.38
54, -148232.22, -147847.42, -153368.36, -154229.17, -153102.38, -152222.84, -152135.78, -154624.36, 0.02, 0.98, 0.37
55, -148264.08, -147878.44, -153397.61, -154262.33, -153136.38, -152255.39, -152165.48, -154654.31, 0.02, 0.98, 0.37
56, -148275.25, -147887.72, -153415.97, -154271.59, -153144.47, -152264.80, -152181.33, -154666.69, 0.02, 0.98, 0.37
57, -148240.05, -147850.23, -153382.00, -154232.70, -153104.86, -152226.70, -152147.06, -154631.53, 0.02, 0.98, 0.37
58, -148222.73, -147833.41, -153356.61, -154215.77, -153089.47, -152209.63, -152124.38, -154611.50, 0.02, 0.98, 0.37
59, -148251.97, -147864.66, -153382.36, -154247.30, -153122.05, -152240.50, -152150.91, -154639.53, 0.02, 0.98, 0.38
60, -148271.83, -147884.48, -153409.53, -154267.08, -153140.41, -152260.45, -152175.75, -154662.72, 0.02, 0.98, 0.38
61, -148240.14, -147851.39, -153383.95, -154234.09, -153105.89, -152227.72, -152148.08, -154633.25, 0.02, 0.98, 0.38
62, -148215.02, -147827.80, -153353.39, -154210.02, -153082.75, -152203.38, -152119.33, -154606.47, 0.02, 0.98, 0.38
63, -148239.77, -147854.70, -153372.41, -154237.78, -153111.56, -152230.48, -152140.55, -154630.61, 0.02, 0.98, 0.38
64, -148265.53, -147879.00, -153403.08, -154263.00, -153136.02, -152255.66, -152169.64, -154658.17, 0.02, 0.99, 0.38
65, -148240.47, -147853.31, -153386.09, -154236.28, -153108.59, -152229.50, -152150.80, -154635.64, 0.02, 0.99, 0.38
66, -148208.25, -147821.41, -153349.06, -154204.17, -153076.91, -152197.31, -152115.66, -154601.58, 0.02, 0.99, 0.38
67, -148223.55, -147836.88, -153356.78, -154221.13, -153094.89, -152213.98, -152124.78, -154614.45, 0.02, 0.99, 0.38
68, -148253.34, -147866.80, -153388.97, -154249.97, -153123.33, -152242.58, -152155.56, -154644.42, 0.02, 0.99, 0.38
69, -148237.41, -147848.78, -153380.03, -154231.48, -153102.98, -152224.30, -152144.66, -154630.64, 0.02, 0.99, 0.37
70, -148202.52, -147814.42, -153344.56, -154198.33, -153069.95, -152191.39, -152110.48, -154597.72, 0.02, 0.99, 0.37
71, -148211.27, -147824.69, -153345.33, -154209.48, -153082.53, -152202.28, -152113.42, -154603.69, 0.02, 0.99, 0.37
72, -148242.98, -147856.42, -153378.31, -154240.94, -153113.83, -152233.19, -152144.52, -154633.98, 0.02, 0.99, 0.37
73, -148235.33, -147848.61, -153379.14, -154231.30, -153102.73, -152224.11, -152142.78, -154629.20, 0.02, 0.99, 0.37
74, -148195.09, -147808.89, -153339.05, -154191.31, -153062.97, -152184.39, -152103.97, -154590.22, 0.03, 0.98, 0.38
75, -148194.05, -147809.78, -153331.28, -154193.09, -153066.39, -152185.89, -152098.45, -154587.92, 0.03, 0.98, 0.38
76, -148227.84, -147840.98, -153362.67, -154226.00, -153099.63, -152218.69, -152129.45, -154619.95, 0.03, 0.98, 0.38
77, -148228.20, -147839.95, -153370.83, -154224.38, -153096.30, -152216.94, -152134.50, -154621.73, 0.03, 0.98, 0.38
78, -148191.88, -147804.81, -153335.52, -154186.44, -153057.83, -152179.23, -152099.39, -154585.16, 0.03, 0.98, 0.38
79, -148184.28, -147797.16, -153319.58, -154179.89, -153052.61, -152172.64, -152086.11, -154575.09, 0.03, 0.98, 0.38
80, -148215.33, -147827.86, -153347.52, -154211.91, -153085.45, -152205.06, -152114.59, -154606.09, 0.02, 0.98, 0.38
81, -148224.09, -147836.16, -153364.45, -154219.86, -153091.83, -152213.05, -152128.16, -154616.98, 0.02, 0.98, 0.38
82, -148191.64, -147802.05, -153335.55, -154185.92, -153056.94, -152179.03, -152098.98, -154585.33, 0.02, 0.98, 0.38
83, -148172.77, -147785.13, -153310.55, -154169.00, -153041.16, -152162.00, -152076.61, -154565.61, 0.02, 0.98, 0.38
84, -148200.55, -147814.39, -153334.84, -154199.50, -153072.66, -152192.38, -152101.61, -154593.53, 0.02, 0.98, 0.38
85, -148219.13, -147834.13, -153360.28, -154217.31, -153089.78, -152210.50, -152124.53, -154614.55, 0.02, 0.98, 0.38
86, -148188.02, -147799.88, -153333.45, -154182.95, -153054.66, -152176.39, -152096.78, -154584.03, 0.02, 0.98, 0.38
87, -148160.52, -147773.64, -153299.92, -154156.22, -153028.84, -152149.53, -152066.02, -154555.09, 0.02, 0.98, 0.38
88, -148183.39, -147798.48, -153316.59, -154181.28, -153055.02, -152174.45, -152084.02, -154576.48, 0.02, 0.98, 0.38
89, -148214.44, -147827.61, -153351.98, -154211.41, -153084.56, -152204.78, -152117.39, -154608.48, 0.02, 0.98, 0.38
90, -148191.03, -147802.72, -153336.19, -154186.34, -153058.42, -152179.95, -152099.91, -154587.36, 0.02, 0.99, 0.38
91, -148160.81, -147772.67, -153301.45, -154155.75, -153028.52, -152149.38, -152067.16, -154555.53, 0.02, 0.99, 0.38
92, -148176.75, -147789.53, -153308.80, -154172.53, -153046.45, -152165.84, -152076.50, -154568.36, 0.02, 0.99, 0.38
93, -148204.48, -147817.78, -153340.94, -154201.63, -153075.16, -152195.19, -152107.33, -154599.20, 0.02, 0.99, 0.38
94, -148186.45, -147798.27, -153332.38, -154182.75, -153055.23, -152177.13, -152097.06, -154585.75, 0.02, 0.99, 0.38
95, -148153.75, -147765.64, -153296.91, -154149.38, -153022.16, -152143.45, -152062.95, -154550.59, 0.02, 0.99, 0.37
96, -148160.64, -147772.94, -153294.69, -154157.11, -153030.86, -152150.44, -152061.86, -154552.58, 0.02, 0.99, 0.37
97, -148192.80, -147805.22, -153327.23, -154189.19, -153062.53, -152182.45, -152092.95, -154584.91, 0.02, 0.99, 0.37
98, -148189.67, -147800.77, -153332.83, -154184.16, -153056.34, -152178.06, -152096.17, -154585.13, 0.02, 0.99, 0.37
99, -148152.08, -147763.02, -153295.50, -154146.30, -153018.73, -152140.31, -152060.16, -154548.09, 0.02, 0.99, 0.37
100, -148145.91, -147758.89, -153281.53, -154142.09, -153015.92, -152136.11, -152049.13, -154540.31, 0.02, 0.99, 0.37
101, -148177.86, -147791.58, -153312.69, -154175.05, -153048.83, -152169.08, -152079.05, -154571.92, 0.02, 0.99, 0.37
102, -148185.41, -147796.92, -153327.47, -154180.11, -153052.73, -152174.67, -152090.98, -154581.34, 0.02, 0.99, 0.37
103, -148147.78, -147758.81, -153291.92, -154141.02, -153013.69, -152135.95, -152055.83, -154544.89, 0.02, 0.99, 0.37
104, -148134.50, -147746.66, -153271.20, -154129.59, -153003.66, -152124.66, -152038.27, -154530.13, 0.02, 0.99, 0.37
105, -148166.45, -147779.30, -153300.53, -154163.69, -153038.30, -152158.25, -152068.05, -154561.69, 0.02, 0.98, 0.38
106, -148179.86, -147791.77, -153321.98, -154176.50, -153049.86, -152171.39, -152087.13, -154578.38, 0.02, 0.98, 0.38
107, -148143.17, -147753.50, -153290.34, -154139.06, -153011.81, -152134.38, -152054.91, -154544.03, 0.02, 0.98, 0.38
108, -148120.06, -147732.70, -153261.64, -154118.25, -152992.02, -152113.47, -152028.67, -154520.08, 0.02, 0.98, 0.38
109, -148149.14, -147763.27, -153285.39, -154148.63, -153023.33, -152143.48, -152053.17, -154547.67, 0.02, 0.98, 0.38
110, -148171.27, -147782.23, -153314.28, -154170.34, -153044.27, -152165.44, -152079.63, -154572.55, 0.02, 0.98, 0.38
111, -148140.67, -147751.69, -153289.69, -154137.45, -153010.67, -152132.69, -152053.91, -154543.11, 0.02, 0.98, 0.38
112, -148110.08, -147722.09, -153250.53, -154105.30, -152979.06, -152100.59, -152017.47, -154508.59, 0.02, 0.98, 0.38
113, -148132.63, -147745.30, -153265.73, -154129.20, -153004.02, -152124.31, -152033.67, -154529.03, 0.02, 0.98, 0.38
114, -148158.95, -147771.89, -153297.67, -154155.58, -153029.92, -152150.55, -152062.84, -154556.70, 0.02, 0.98, 0.38
115, -148137.92, -147750.28, -153284.77, -154133.42, -153006.33, -152128.41, -152047.78, -154538.23, 0.02, 0.98, 0.38
116, -148105.25, -147717.64, -153248.83, -154101.38, -152974.81, -152095.81, -152013.42, -154504.17, 0.02, 0.98, 0.38
117, -148116.09, -147729.48, -153252.63, -154114.77, -152989.45, -152109.00, -152019.44, -154513.36, 0.02, 0.98, 0.38
118, -148145.72, -147757.28, -153284.66, -154144.23, -153018.27, -152138.47, -152049.91, -154543.52, 0.02, 0.98, 0.38
119, -148133.44, -147744.67, -153281.34, -154130.63, -153003.36, -152124.94, -152044.25, -154534.28, 0.02, 0.98, 0.38
120, -148099.22, -147711.44, -153245.45, -154095.42, -152968.47, -152089.98, -152008.91, -154499.20, 0.02, 0.98, 0.38
121, -148104.91, -147718.92, -153242.97, -154103.00, -152977.02, -152097.11, -152008.64, -154502.45, 0.02, 0.99, 0.38
122, -148138.34, -147752.94, -153277.58, -154137.78, -153011.98, -152131.89, -152042.75, -154537.14, 0.02, 0.99, 0.38
123, -148137.13, -147748.83, -153283.72, -154133.72, -153006.58, -152127.89, -152046.02, -154537.39, 0.02, 0.99, 0.38
124, -148098.30, -147707.75, -153244.69, -154093.80, -152966.14, -152087.67, -152007.59, -154497.67, 0.02, 0.99, 0.38
125, -148091.64, -147702.05, -153231.58, -154090.47, -152963.70, -152083.59, -151996.70, -154489.73, 0.02, 0.99, 0.38
126, -148123.80, -147737.00, -153263.14, -154124.69, -152997.89, -152117.77, -152027.83, -154522.64, 0.02, 0.98, 0.39
127, -148131.58, -147744.28, -153277.78, -154130.22, -153002.14, -152123.84, -152040.11, -154532.45, 0.02, 0.98, 0.39
128, -148094.03, -147706.30, -153243.80, -154091.53, -152963.17, -152085.44, -152005.52, -154495.70, 0.02, 0.98, 0.39
129, -148080.09, -147694.00, -153222.91, -154079.78, -152952.41, -152073.31, -151987.03, -154479.73, 0.02, 0.98, 0.39
130, -148109.67, -147722.27, -153247.84, -154110.02, -152982.86, -152103.22, -152012.23, -154507.88, 0.02, 0.98, 0.39
131, -148123.48, -147733.89, -153268.80, -154122.83, -152994.56, -152116.06, -152031.13, -154524.06, 0.01, 0.98, 0.39
132, -148089.47, -147700.69, -153239.89, -154087.73, -152958.44, -152080.66, -152001.30, -154490.88, 0.01, 0.98, 0.39
133, -148066.38, -147678.80, -153210.00, -154065.66, -152937.06, -152057.95, -151973.55, -154465.33, 0.01, 0.98, 0.39
134, -148090.19, -147705.06, -153230.08, -154092.16, -152965.13, -152084.70, -151994.41, -154489.44, 0.01, 0.98, 0.39
135, -148113.00, -147726.78, -153258.44, -154114.27, -152986.52, -152107.50, -152021.11, -154514.52, 0.01, 0.98, 0.39
136, -148084.84, -147697.14, -153236.30, -154084.50, -152955.66, -152078.36, -151998.42, -154489.02, 0.01, 0.98, 0.39
137, -148054.13, -147667.05, -153199.83, -154053.83, -152925.73, -152047.53, -151963.67, -154455.69, 0.01, 0.98, 0.38
138, -148074.13, -147686.94, -153212.06, -154075.17, -152947.75, -152068.66, -151977.08, -154472.81, 0.01, 0.98, 0.38
139, -148100.84, -147713.00, -153243.75, -154102.17, -152973.91, -152095.92, -152006.63, -154501.72, 0.01, 0.98, 0.38
140, -148080.33, -147693.06, -153231.47, -154079.70, -152950.48, -152073.70, -151992.02, -154483.66, 0.01, 0.98, 0.38
141, -148047.53, -147660.20, -153194.06, -154045.80, -152917.59, -152039.52, -151956.63, -154448.11, 0.01, 0.98, 0.38
142, -148058.52, -147671.38, -153197.00, -154058.09, -152931.28, -152051.36, -151961.53, -154456.11, 0.02, 0.98, 0.39
143, -148089.25, -147703.03, -153231.55, -154089.75, -152962.86, -152082.97, -151993.73, -154488.48, 0.02, 0.98, 0.39
144, -148078.11, -147691.30, -153228.42, -154076.88, -152948.69, -152070.73, -151988.95, -154480.41, 0.02, 0.98, 0.39
145, -148042.42, -147653.97, -153190.30, -154039.39, -152911.41, -152033.31, -151951.83, -154442.86, 0.02, 0.98, 0.39
146, -148044.98, -147658.17, -153184.92, -154043.72, -152916.97, -152037.59, -151948.58, -154443.00, 0.02, 0.98, 0.39
147, -148078.69, -147692.08, -153219.66, -154078.89, -152952.00, -152072.70, -151982.05, -154477.30, 0.02, 0.98, 0.38
148, -148077.42, -147690.42, -153226.98, -154076.09, -152947.75, -152069.66, -151986.14, -154477.75, 0.02, 0.98, 0.38
149, -148041.67, -147655.11, -153192.28, -154039.86, -152911.36, -152033.59, -151952.20, -154442.97, 0.02, 0.98, 0.38
150, -148034.25, -147647.59, -153176.34, -154033.84, -152906.52, -152027.28, -151939.23, -154433.36, 0.02, 0.98, 0.38
151, -148067.09, -147680.41, -153206.61, -154067.53, -152940.59, -152061.03, -151969.97, -154466.02, 0.02, 0.98, 0.38
152, -148075.67, -147687.38, -153222.66, -154074.41, -152946.64, -152068.20, -151984.02, -154476.91, 0.03, 0.98, 0.38
153, -148039.11, -147651.73, -153190.33, -154037.36, -152908.97, -152031.08, -151950.73, -154441.31, 0.03, 0.98, 0.38
154, -148021.61, -147635.70, -153166.42, -154021.33, -152894.52, -152014.70, -151928.73, -154421.67, 0.03, 0.98, 0.38
155, -148053.50, -147667.83, -153192.48, -154052.83, -152927.44, -152046.47, -151955.78, -154451.16, 0.03, 0.98, 0.38
156, -148070.83, -147683.42, -153216.94, -154068.84, -152942.50, -152062.80, -151977.47, -154470.69, 0.03, 0.98, 0.38
157, -148036.09, -147647.92, -153187.97, -154033.22, -152905.75, -152027.11, -151947.02, -154437.56, 0.03, 0.99, 0.37
158, -148013.00, -147625.98, -153158.70, -154011.14, -152885.14, -152005.31, -151920.89, -154413.59, 0.03, 0.99, 0.37
159, -148039.08, -147652.09, -153179.00, -154039.09, -152913.84, -152033.41, -151942.50, -154438.52, 0.03, 0.99, 0.37
160, -148061.89, -147674.66, -153208.95, -154062.56, -152936.64, -152056.92, -151969.81, -154463.89, 0.03, 0.99, 0.37
161, -148035.02, -147648.13, -153189.06, -154034.03, -152907.20, -152028.92, -151948.73, -154439.91, 0.03, 0.99, 0.37
162, -148003.33, -147616.50, -153151.22, -154001.09, -152875.06, -151996.38, -151912.64, -154405.47, 0.04, 0.99, 0.38
163, -148023.86, -147637.88, -153163.22, -154022.30, -152897.48, -152017.38, -151926.41, -154422.16, 0.04, 0.99, 0.38
164, -148052.73, -147666.48, -153197.72, -154052.83, -152927.64, -152047.69, -151959.42, -154453.48, 0.04, 0.99, 0.38
165, -148036.31, -147647.55, -153187.36, -154033.38, -152906.92, -152028.42, -151947.98, -154438.30, 0.04, 0.99, 0.38
166, -148000.14, -147611.52, -153146.92, -153996.30, -152870.09, -151991.55, -151909.63, -154400.23, 0.04, 0.99, 0.38
167, -148007.50, -147620.55, -153147.17, -154006.58, -152881.23, -152001.14, -151911.88, -154405.53, 0.04, 0.99, 0.38
168, -148038.91, -147652.22, -153181.08, -154039.86, -152913.42, -152034.13, -151944.47, -154437.97, 0.03, 0.99, 0.38
169, -148029.70, -147641.67, -153180.34, -154028.75, -152900.80, -152023.17, -151941.14, -154430.00, 0.03, 0.99, 0.38
170, -147993.67, -147604.86, -153143.11, -153992.41, -152864.56, -151986.73, -151905.28, -154392.80, 0.03, 0.99, 0.38
171, -147993.53, -147607.03, -153135.17, -153994.70, -152867.94, -151988.95, -151899.92, -154389.86, 0.03, 0.99, 0.38
172, -148027.31, -147642.30, -153168.72, -154029.31, -152902.56, -152023.64, -151932.89, -154423.19, 0.03, 0.99, 0.38
173, -148030.23, -147641.63, -153179.14, -154029.38, -152901.38, -152024.25, -151940.63, -154427.39, 0.03, 0.99, 0.38
174, -147992.28, -147602.28, -153142.28, -153990.77, -152862.80, -151985.73, -151905.00, -154388.98, 0.03, 0.99, 0.38
175, -147983.56, -147593.39, -153124.67, -153983.39, -152856.69, -151978.02, -151890.63, -154376.72, 0.03, 0.99, 0.38
176, -148017.47, -147626.42, -153155.41, -154017.91, -152891.48, -152012.39, -151921.19, -154408.73, 0.03, 0.99, 0.38
177, -148026.45, -147634.36, -153171.67, -154025.31, -152897.48, -152020.13, -151934.80, -154419.19, 0.03, 0.99, 0.38
178, -147991.50, -147599.88, -153140.53, -153989.25, -152860.77, -151984.39, -151903.44, -154385.38, 0.02, 0.99, 0.38
179, -147975.94, -147585.48, -153117.45, -153974.48, -152847.28, -151969.44, -151882.63, -154366.63, 0.02, 0.99, 0.38
180, -148005.64, -147614.98, -153143.28, -154006.47, -152879.80, -152000.86, -151908.73, -154394.88, 0.02, 0.99, 0.38
181, -148019.39, -147625.53, -153164.11, -154019.55, -152891.94, -152013.73, -151927.27, -154411.25, 0.02, 0.99, 0.38
182, -147989.02, -147596.75, -153137.45, -153985.66, -152857.41, -151979.98, -151899.75, -154380.39, 0.02, 0.99, 0.38
183, -147965.45, -147575.31, -153107.88, -153962.61, -152835.59, -151957.25, -151871.92, -154355.16, 0.02, 0.99, 0.38
184, -147988.02, -147599.19, -153125.42, -153987.84, -152861.88, -151982.67, -151890.56, -154377.56, 0.02, 0.99, 0.38
185, -148008.86, -147620.69, -153152.89, -154009.45, -152882.81, -152004.67, -151915.86, -154401.86, 0.02, 0.99, 0.38
186, -147985.80, -147595.92, -153136.20, -153983.80, -152855.78, -151979.08, -151897.48, -154380.23, 0.02, 0.99, 0.38
187, -147956.67, -147565.52, -153101.86, -153954.36, -152826.89, -151949.44, -151864.72, -154349.09, 0.02, 0.99, 0.38
188, -147972.59, -147582.19, -153109.48, -153972.06, -152846.25, -151967.20, -151875.61, -154363.47, 0.02, 0.98, 0.38
189, -148002.41, -147612.23, -153143.28, -154002.48, -152875.63, -151997.27, -151907.45, -154394.80, 0.02, 0.98, 0.38
190, -147987.28, -147596.88, -153137.20, -153986.66, -152857.92, -151981.27, -151898.73, -154382.64, 0.02, 0.98, 0.38
191, -147952.88, -147562.25, -153099.75, -153952.39, -152823.50, -151946.58, -151862.86, -154346.88, 0.02, 0.98, 0.38
192, -147959.88, -147570.84, -153098.52, -153961.17, -152833.28, -151954.84, -151863.31, -154351.02, 0.02, 0.98, 0.38
193, -147993.06, -147603.25, -153133.38, -153994.50, -152866.84, -151988.30, -151897.05, -154385.17, 0.02, 0.98, 0.38
194, -147985.95, -147597.97, -153136.52, -153987.48, -152858.45, -151981.69, -151897.88, -154382.98, 0.02, 0.98, 0.39
195, -147948.50, -147560.98, -153099.09, -153949.72, -152820.75, -151943.94, -151860.81, -154345.42, 0.02, 0.98, 0.39
196, -147946.42, -147557.03, -153087.31, -153947.67, -152820.13, -151941.88, -151851.17, -154339.64, 0.02, 0.98, 0.39
197, -147979.47, -147589.48, -153119.25, -153980.95, -152853.72, -151974.73, -151882.13, -154371.80, 0.02, 0.98, 0.39
198, -147982.02, -147591.83, -153130.09, -153981.59, -152853.19, -151975.78, -151890.20, -154376.97, 0.02, 0.98, 0.39
199, -147946.08, -147554.98, -153096.45, -153944.17, -152815.94, -151938.95, -151856.47, -154341.83, 0.03, 0.98, 0.39
200, -147933.63, -147543.55, -153075.38, -153932.81, -152805.94, -151927.08, -151838.39, -154326.42, 0.03, 0.98, 0.39
201, -147963.22, -147575.44, -153101.89, -153964.44, -152837.98, -151958.44, -151865.80, -154355.83, 0.03, 0.98, 0.39
202, -147973.02, -147585.02, -153120.08, -153973.61, -152846.14, -151968.03, -151881.64, -154369.28, 0.03, 0.98, 0.39
203, -147937.66, -147547.25, -153088.02, -153935.97, -152807.63, -151930.64, -151849.09, -154334.41, 0.03, 0.98, 0.39
204, -147918.72, -147529.53, -153062.73, -153919.06, -152791.42, -151913.41, -151825.83, -154313.88, 0.03, 0.98, 0.39
205, -147947.17, -147559.27, -153086.13, -153949.31, -152822.06, -151943.16, -151849.61, -154340.44, 0.03, 0.98, 0.39
206, -147969.22, -147579.89, -153112.66, -153968.59, -152840.69, -151962.78, -151874.16, -154363.20, 0.03, 0.98, 0.39
207, -147939.52, -147548.47, -153089.33, -153936.95, -152808.64, -151932.20, -151849.95, -154336.36, 0.03, 0.98, 0.39
208, -147913.00, -147522.78, -153057.30, -153911.41, -152783.83, -151906.61, -151820.08, -154308.41, 0.03, 0.98, 0.39
209, -147934.50, -147546.36, -153072.36, -153934.88, -152808.09, -151929.67, -151836.05, -154327.66, 0.02, 0.98, 0.38
210, -147960.55, -147572.02, -153104.08, -153961.38, -152834.19, -151956.08, -151866.13, -154355.70, 0.02, 0.98, 0.38
211, -147941.45, -147550.03, -153092.44, -153940.64, -152812.14, -151935.39, -151853.08, -154339.33, 0.02, 0.98, 0.38
212, -147910.86, -147518.64, -153057.39, -153910.48, -152782.13, -151905.33, -151819.92, -154307.86, 0.02, 0.98, 0.38
213, -147922.23, -147534.22, -153061.20, -153923.70, -152796.34, -151918.31, -151825.22, -154316.94, 0.02, 0.98, 0.38
214, -147949.81, -147561.89, -153092.05, -153951.91, -152824.14, -151946.45, -151854.84, -154346.80, 0.02, 0.98, 0.38
215, -147937.91, -147547.70, -153086.89, -153936.73, -152807.73, -151931.66, -151847.95, -154336.47, 0.02, 0.98, 0.38
216, -147902.56, -147511.92, -153049.34, -153901.05, -152772.36, -151895.67, -151811.92, -154299.56, 0.02, 0.98, 0.38
217, -147906.88, -147517.17, -153046.02, -153907.88, -152780.30, -151902.14, -151810.86, -154301.98, 0.02, 0.98, 0.38
218, -147940.84, -147552.28, -153082.05, -153943.83, -152815.63, -151938.02, -151845.59, -154337.81, 0.02, 0.98, 0.38
219, -147938.19, -147547.75, -153088.45, -153939.75, -152810.13, -151933.91, -151848.73, -154337.56, 0.02, 0.98, 0.38
220, -147901.33, -147509.39, -153052.38, -153902.33, -152773.08, -151896.22, -151813.25, -154300.69, 0.02, 0.98, 0.38
221, -147899.23, -147510.25, -153040.91, -153900.61, -152772.84, -151894.16, -151804.66, -154295.19, 0.02, 0.98, 0.38
222, -147935.03, -147546.44, -153075.84, -153937.39, -152810.13, -151930.92, -151839.11, -154331.19, 0.02, 0.98, 0.38
223, -147939.08, -147549.69, -153088.67, -153940.14, -152811.73, -151934.17, -151848.69, -154337.84, 0.02, 0.98, 0.38
224, -147902.66, -147512.34, -153054.61, -153902.06, -152773.30, -151896.28, -151814.23, -154301.55, 0.02, 0.98, 0.38
225, -147890.73, -147501.69, -153034.05, -153891.11, -152763.70, -151885.33, -151797.02, -154288.00, 0.02, 0.98, 0.38
226, -147920.53, -147532.81, -153061.13, -153923.16, -152796.39, -151917.41, -151824.53, -154318.38, 0.02, 0.98, 0.38
227, -147932.42, -147542.16, -153080.14, -153933.03, -152805.38, -151927.48, -151840.63, -154331.66, 0.02, 0.98, 0.38
228, -147900.08, -147508.91, -153050.70, -153897.19, -152769.27, -151891.67, -151810.56, -154298.64, 0.02, 0.98, 0.38
229, -147876.72, -147486.02, -153021.06, -153875.19, -152748.48, -151869.95, -151783.69, -154274.28, 0.02, 0.98, 0.38
230, -147903.03, -147513.38, -153042.25, -153903.28, -152777.44, -151898.19, -151806.03, -154299.72, 0.02, 0.98, 0.39
231, -147923.75, -147533.33, -153069.38, -153923.47, -152796.59, -151918.19, -151830.95, -154322.50, 0.02, 0.98, 0.39
232, -147896.38, -147504.45, -153048.88, -153894.92, -152767.03, -151889.67, -151809.17, -154297.69, 0.02, 0.98, 0.39
233, -147869.70, -147477.05, -153015.09, -153868.05, -152741.00, -151863.14, -151778.22, -154268.50, 0.02, 0.98, 0.39
234, -147891.25, -147500.88, -153029.64, -153890.92, -152764.78, -151885.42, -151793.50, -154286.95, 0.02, 0.98, 0.39
235, -147916.73, -147528.61, -153060.67, -153917.22, -152790.16, -151911.08, -151822.13, -154314.25, 0.02, 0.98, 0.38
236, -147894.47, -147505.33, -153046.64, -153893.78, -152765.09, -151887.77, -151805.63, -154294.73, 0.02, 0.98, 0.38
237, -147861.50, -147472.42, -153009.02, -153860.63, -152732.34, -151854.70, -151769.70, -154260.47, 0.02, 0.98, 0.38
238, -147871.42, -147482.61, -153011.30, -153872.33, -152745.61, -151866.28, -151774.06, -154268.19, 0.02, 0.98, 0.38
239, -147900.23, -147510.02, -153042.77, -153901.30, -152774.34, -151895.44, -151804.30, -154298.16, 0.02, 0.98, 0.38
240, -147887.45, -147496.77, -153038.70, -153887.00, -152758.72, -151881.58, -151798.31, -154288.55, 0.02, 0.99, 0.38
241, -147851.80, -147461.30, -153000.69, -153850.78, -152722.52, -151845.45, -151761.95, -154252.05, 0.02, 0.99, 0.38
242, -147856.63, -147467.02, -152998.33, -153858.27, -152731.19, -151852.84, -151761.23, -154255.23, 0.02, 0.99, 0.38
243, -147890.30, -147501.08, -153032.83, -153892.94, -152765.92, -151887.56, -151794.98, -154289.75, 0.02, 0.99, 0.38
244, -147889.53, -147499.20, -153038.45, -153888.11, -152760.02, -151882.67, -151797.83, -154288.70, 0.02, 0.99, 0.38
245, -147854.23, -147463.38, -153002.98, -153851.61, -152723.58, -151846.41, -151763.52, -154252.89, 0.02, 0.99, 0.38
246, -147849.45, -147458.59, -152989.55, -153848.03, -152721.55, -151842.69, -151752.53, -154245.41, 0.02, 0.99, 0.38
247, -147880.86, -147491.05, -153021.05, -153881.05, -152755.08, -151875.88, -151782.84, -154277.25, 0.02, 0.99, 0.38
248, -147882.91, -147492.98, -153031.45, -153882.50, -152755.42, -151877.84, -151791.52, -154282.94, 0.02, 0.99, 0.38
249, -147847.86, -147455.22, -152997.38, -153845.02, -152717.44, -151840.89, -151758.11, -154247.86, 0.02, 0.99, 0.38
250, -147835.61, -147443.59, -152977.95, -153834.13, -152707.98, -151829.72, -151740.75, -154233.17, 0.02, 0.99, 0.38
251, -147865.38, -147477.98, -153005.16, -153866.55, -152741.02, -151861.86, -151768.25, -154263.06, 0.02, 0.99, 0.38
252, -147877.69, -147490.70, -153025.25, -153878.30, -152751.80, -151873.92, -151785.70, -154278.02, 0.02, 0.99, 0.38
253, -147841.89, -147453.30, -152994.38, -153840.45, -152713.39, -151836.56, -151753.88, -154243.13, 0.02, 0.99, 0.38
254, -147824.64, -147435.00, -152968.89, -153822.06, -152696.25, -151817.89, -151730.36, -154221.56, 0.02, 0.99, 0.38
255, -147853.44, -147462.30, -152990.52, -153850.73, -152725.91, -151846.44, -151752.52, -154246.83, 0.02, 0.99, 0.38
0, -147874.38, -147481.30, -153017.41, -153870.67, -152745.17, -151866.39, -151777.08, -154269.50, 0.01, 0.98, 0.38
1, -147845.88, -147453.58, -152996.86, -153842.25, -152715.36, -151838.05, -151755.31, -154244.67, 0.01, 0.98, 0.38
2, -147815.70, -147425.31, -152962.30, -153813.44, -152686.84, -151809.06, -151722.11, -154213.86, 0.01, 0.98, 0.38
3, -147836.78, -147447.80, -152977.30, -153837.08, -152711.73, -151832.42, -151738.92, -154234.03, 0.01, 0.98, 0.38
4, -147863.25, -147476.16, -153009.05, -153864.75, -152738.98, -151860.25, -151769.56, -154263.64, 0.01, 0.98, 0.38
5, -147843.42, -147455.06, -152996.50, -153842.84, -152715.47, -151838.80, -151754.64, -154245.84, 0.02, 0.98, 0.38
6, -147810.03, -147420.80, -152958.03, -153807.75, -152680.42, -151803.09, -151717.13, -154208.48, 0.02, 0.98, 0.38
7, -147821.58, -147431.03, -152960.05, -153819.84, -152693.64, -151814.73, -151721.56, -154216.28, 0.02, 0.98, 0.38
8, -147852.97, -147462.30, -152994.16, -153852.28, -152725.80, -151847.28, -151754.73, -154249.83, 0.02, 0.98, 0.38
9, -147842.91, -147451.14, -152993.94, -153841.55, -152713.84, -151836.94, -151751.84, -154243.34, 0.02, 0.98, 0.38
10, -147805.95, -147413.50, -152956.02, -153804.45, -152677.19, -151800.22, -151715.48, -154206.89, 0.02, 0.98, 0.37
11, -147808.14, -147419.22, -152950.08, -153808.67, -152682.81, -151804.17, -151712.28, -154207.23, 0.02, 0.98, 0.37
12, -147839.27, -147452.23, -152982.36, -153841.84, -152715.98, -151837.45, -151743.89, -154240.36, 0.02, 0.98, 0.37
13, -147837.97, -147450.50, -152989.66, -153839.36, -152712.13, -151835.44, -151749.08, -154242.61, 0.02, 0.98, 0.37
14, -147800.38, -147410.22, -152951.13, -153798.23, -152671.03, -151794.20, -151710.25, -154201.95, 0.02, 0.98, 0.37
15, -147791.78, -147401.38, -152934.14, -153790.84, -152665.06, -151786.59, -151695.56, -154190.55, 0.02, 0.99, 0.38
16, -147827.25, -147436.61, -152967.22, -153826.94, -152701.44, -151822.47, -151728.20, -154224.86, 0.02, 0.99, 0.38
17, -147835.59, -147444.22, -152983.31, -153834.47, -152707.88, -151829.97, -151742.55, -154236.36, 0.02, 0.99, 0.38
18, -147798.09, -147405.97, -152949.47, -153795.86, -152668.58, -151791.52, -151708.34, -154200.44, 0.02, 0.99, 0.38
19, -147782.31, -147393.30, -152927.34, -153782.09, -152655.95, -151777.42, -151688.41, -154183.16, 0.02, 0.99, 0.38
20, -147811.50, -147424.66, -152953.97, -153814.23, -152689.08, -151809.42, -151715.45, -154212.34, 0.02, 0.99, 0.38
21, -147828.86, -147440.19, -152976.66, -153828.88, -152703.00, -151824.44, -151735.97, -154230.23, 0.02, 0.99, 0.38
22, -147798.48, -147406.73, -152948.94, -153794.41, -152667.38, -151790.33, -151707.47, -154199.16, 0.02, 0.99, 0.38
23, -147776.63, -147384.92, -152920.84, -153773.48, -152647.30, -151769.38, -151681.50, -154175.83, 0.02, 0.99, 0.38
24, -147800.72, -147411.36, -152940.44, -153800.89, -152675.39, -151796.44, -151702.20, -154200.08, 0.02, 0.99, 0.38
25, -147822.19, -147432.03, -152968.56, -153822.89, -152696.23, -151818.08, -151727.56, -154223.28, 0.02, 0.99, 0.38
26, -147796.81, -147404.70, -152950.02, -153795.69, -152667.53, -151791.14, -151707.00, -154199.98, 0.02, 0.98, 0.38
27, -147768.14, -147377.83, -152916.08, -153767.17, -152639.45, -151762.63, -151675.06, -154170.45, 0.02, 0.98, 0.38
28, -147784.88, -147396.61, -152926.47, -153786.75, -152660.33, -151781.95, -151687.30, -154186.28, 0.02, 0.98, 0.38
29, -147814.73, -147424.86, -152960.33, -153816.16, -152689.17, -151811.17, -151718.72, -154216.66, 0.02, 0.98, 0.38
30, -147799.66, -147407.42, -152952.02, -153798.69, -152670.25, -151793.58, -151708.91, -154203.14, 0.02, 0.98, 0.38
31, -147763.52, -147371.58, -152912.80, -153762.20, -152634.92, -151757.72, -151671.89, -154166.56, 0.02, 0.97, 0.39
32, -147773.28, -147383.11, -152914.89, -153773.52, -152647.81, -151768.94, -151675.94, -154173.64, 0.02, 0.97, 0.39
33, -147807.44, -147418.31, -152951.53, -153808.25, -152682.44, -151803.45, -151710.88, -154208.34, 0.02, 0.97, 0.39
34, -147800.28, -147409.58, -152953.45, -153800.30, -152673.08, -151796.17, -151710.83, -154205.16, 0.02, 0.97, 0.39
35, -147760.98, -147370.66, -152913.78, -153761.20, -152634.17, -151757.09, -151672.55, -154166.33, 0.02, 0.97, 0.39
36, -147759.31, -147372.13, -152904.44, -153761.69, -152635.70, -151757.00, -151665.31, -154162.59, 0.02, 0.98, 0.39
37, -147791.66, -147404.77, -152934.78, -153793.41, -152667.17, -151788.81, -151694.84, -154194.13, 0.02, 0.98, 0.39
38, -147790.88, -147401.66, -152941.81, -153790.38, -152662.98, -151786.58, -151699.66, -154196.08, 0.02, 0.98, 0.39
39, -147753.03, -147362.72, -152905.42, -153751.45, -152624.05, -151747.59, -151663.33, -154157.98, 0.02, 0.98, 0.39
40, -147745.39, -147354.39, -152889.75, -153744.50, -152618.53, -151739.91, -151649.09, -154146.34, 0.02, 0.98, 0.39
41, -147777.75, -147387.59, -152919.16, -153778.00, -152652.64, -151773.38, -151678.84, -154177.67, 0.02, 0.98, 0.38
42, -147789.03, -147399.25, -152938.61, -153789.11, -152662.00, -151784.86, -151696.28, -154192.44, 0.02, 0.98, 0.38
43, -147755.11, -147365.25, -152909.33, -153754.73, -152627.14, -151750.84, -151666.70, -154160.92, 0.02, 0.98, 0.38
44, -147735.09, -147346.97, -152883.38, -153736.80, -152610.42, -151732.94, -151642.95, -154140.17, 0.02, 0.98, 0.38
45, -147762.58, -147373.97, -152905.22, -153764.84, -152639.31, -151760.77, -151665.72, -154165.08, 0.02, 0.98, 0.38
46, -147781.84, -147390.66, -152929.92, -153781.97, -152655.39, -151777.64, -151687.69, -154184.42, 0.02, 0.98, 0.39
47, -147751.66, -147360.44, -152905.06, -153749.83, -152622.36, -151746.03, -151662.19, -154156.38, 0.02, 0.98, 0.39
48, -147727.59, -147337.80, -152875.69, -153727.02, -152600.45, -151723.34, -151634.92, -154131.44, 0.02, 0.98, 0.39
49, -147749.86, -147360.83, -152891.27, -153750.73, -152625.00, -151747.02, -151651.66, -154151.66, 0.02, 0.98, 0.39
50, -147772.55, -147382.81, -152919.75, -153772.73, -152646.31, -151769.25, -151677.34, -154176.00, 0.02, 0.98, 0.39
51, -147749.08, -147358.83, -152903.94, -153747.61, -152620.14, -151744.17, -151659.53, -154154.98, 0.02, 0.98, 0.39
52, -147717.36, -147327.20, -152866.61, -153716.67, -152589.47, -151713.13, -151625.95, -154122.84, 0.02, 0.98, 0.39
53, -147731.38, -147343.30, -152874.61, -153733.97, -152607.69, -151730.09, -151635.53, -154135.86, 0.02, 0.98, 0.39
54, -147760.53, -147373.16, -152908.48, -153764.06, -152637.23, -151760.16, -151667.00, -154166.80, 0.02, 0.98, 0.39
55, -147741.38, -147352.80, -152898.16, -153743.20, -152615.34, -151739.33, -151654.14, -154149.81, 0.02, 0.98, 0.39
56, -147708.08, -147316.63, -152859.34, -153707.17, -152579.91, -151703.16, -151617.44, -154113.00, 0.02, 0.98, 0.39
57, -147717.16, -147327.00, -152858.69, -153716.25, -152590.34, -151712.22, -151619.08, -154118.42, 0.02, 0.98, 0.38
58, -147751.22, -147361.11, -152894.67, -153750.81, -152624.70, -151746.91, -151653.09, -154153.06, 0.02, 0.98, 0.38
59, -147743.89, -147352.19, -152897.02, -153742.83, -152615.94, -151739.44, -151652.94, -154149.73, 0.02, 0.98, 0.38
60, -147706.38, -147315.97, -152858.97, -153704.81, -152578.30, -151701.67, -151616.53, -154112.56, 0.02, 0.98, 0.38
61, -147707.66, -147320.44, -152853.00, -153708.20, -152583.06, -151704.91, -151612.41, -154111.94, 0.02, 0.98, 0.38
62, -147741.42, -147354.36, -152885.64, -153743.11, -152618.28, -151739.94, -151645.38, -154145.78, 0.02, 0.99, 0.39
63, -147745.03, -147356.38, -152898.83, -153745.95, -152619.69, -151743.13, -151655.63, -154151.58, 0.02, 0.99, 0.39
64, -147708.30, -147319.14, -152863.95, -153708.31, -152581.45, -151705.47, -151620.84, -154114.80, 0.02, 0.99, 0.39
65, -147696.92, -147308.11, -152842.44, -153696.27, -152570.39, -151693.14, -151601.63, -154098.80, 0.02, 0.99, 0.39
66, -147726.77, -147337.53, -152869.70, -153726.98, -152601.81, -151723.95, -151628.33, -154127.56, 0.02, 0.99, 0.39
67, -147736.69, -147347.55, -152887.09, -153736.45, -152610.03, -151733.53, -151644.09, -154140.55, 0.03, 0.98, 0.38
68, -147701.48, -147311.25, -152856.63, -153700.02, -152573.31, -151697.63, -151612.97, -154106.25, 0.03, 0.98, 0.38
69, -147684.05, -147295.06, -152833.84, -153684.63, -152559.41, -151682.08, -151592.59, -154087.94, 0.03, 0.98, 0.38
70, -147712.39, -147323.94, -152856.31, -153714.69, -152589.59, -151710.78, -151616.28, -154114.45, 0.03, 0.98, 0.38
71, -147730.52, -147340.61, -152881.33, -153730.70, -152605.30, -151727.48, -151636.89, -154133.42, 0.03, 0.98, 0.38
72, -147700.45, -147310.13, -152856.20, -153698.91, -152572.53, -151695.97, -151611.78, -154105.38, 0.02, 0.98, 0.38
73, -147674.48, -147284.28, -152823.13, -153673.11, -152547.36, -151669.86, -151581.92, -154077.09, 0.02, 0.98, 0.38
74, -147695.72, -147306.50, -152837.73, -153696.16, -152571.42, -151692.50, -151598.33, -154096.59, 0.02, 0.98, 0.38
75, -147719.41, -147330.67, -152867.75, -153720.30, -152594.42, -151717.20, -151625.53, -154123.28, 0.02, 0.98, 0.38
76, -147696.09, -147306.50, -152852.11, -153695.66, -152568.73, -151692.97, -151608.38, -154102.78, 0.02, 0.98, 0.38
77, -147666.27, -147276.13, -152817.73, -153666.22, -152539.86, -151662.97, -151576.52, -154071.28, 0.02, 0.98, 0.38
78, -147678.73, -147290.33, -152825.52, -153681.78, -152557.27, -151678.34, -151585.23, -154083.80, 0.02, 0.98, 0.38
79, -147708.02, -147319.25, -152856.67, -153710.92, -152586.28, -151707.92, -151616.27, -154114.13, 0.02, 0.98, 0.38
80, -147696.81, -147305.28, -152852.64, -153696.36, -152570.16, -151693.22, -151609.22, -154103.03, 0.02, 0.98, 0.38
81, -147663.16, -147272.02, -152816.95, -153662.63, -152536.56, -151659.17, -151574.23, -154068.48, 0.02, 0.98, 0.38
82, -147666.17, -147278.41, -152811.70, -153668.23, -152543.72, -151664.77, -151572.14, -154070.03, 0.02, 0.98, 0.38
83, -147699.77, -147311.94, -152845.56, -153700.98, -152576.78, -151698.06, -151604.48, -154102.98, 0.02, 0.98, 0.38
84, -147696.39, -147306.03, -152850.77, -153695.81, -152569.63, -151692.97, -151606.31, -154101.80, 0.02, 0.98, 0.38
85, -147658.09, -147266.91, -152811.58, -153656.72, -152529.84, -151654.13, -151568.56, -154063.53, 0.02, 0.98, 0.38
86, -147651.39, -147262.09, -152796.94, -153652.45, -152526.64, -151649.47, -151556.78, -154055.42, 0.02, 0.98, 0.38
87, -147685.95, -147296.88, -152831.48, -153688.73, -152563.14, -151685.69, -151590.06, -154090.06, 0.02, 0.98, 0.38
88, -147691.97, -147301.77, -152845.78, -153693.55, -152566.50, -151690.42, -151601.75, -154098.13, 0.02, 0.98, 0.38
89, -147653.52, -147261.17, -152809.13, -153652.91, -152525.69, -151650.03, -151564.98, -154059.30, 0.02, 0.98, 0.38
90, -147639.34, -147248.89, -152788.11, -153640.45, -152514.64, -151637.41, -151546.44, -154043.50, 0.02, 0.98, 0.38
91, -147669.48, -147282.86, -152815.61, -153673.27, -152547.97, -151671.02, -151574.84, -154074.44, 0.02, 0.98, 0.38
92, -147685.61, -147298.03, -152837.94, -153686.97, -152560.19, -151685.27, -151594.38, -154091.78, 0.02, 0.98, 0.38
93, -147652.17, -147262.00, -152807.72, -153650.52, -152523.19, -151647.44, -151563.22, -154057.72, 0.02, 0.98, 0.38
94, -147629.67, -147239.73, -152779.02, -153630.08, -152503.47, -151626.42, -151536.75, -154033.75, 0.02, 0.98, 0.38
95, -147657.66, -147268.86, -152801.55, -153659.13, -152533.64, -151655.70, -151559.89, -154059.95, 0.02, 0.98, 0.38
96, -147676.94, -147287.16, -152827.61, -153678.20, -152551.97, -151675.38, -151584.03, -154082.34, 0.02, 0.98, 0.38
97, -147647.19, -147256.66, -152805.02, -153647.03, -152520.05, -151644.48, -151560.95, -154055.14, 0.02, 0.98, 0.38
98, -147621.23, -147232.61, -152775.47, -153623.56, -152497.70, -151620.50, -151534.45, -154029.05, 0.01, 0.98, 0.38
99, -147641.52, -147252.75, -152787.44, -153644.97, -152519.67, -151641.36, -151548.91, -154045.95, 0.01, 0.98, 0.38
100, -147669.67, -147279.97, -152818.33, -153670.88, -152545.05, -151668.14, -151577.61, -154074.69, 0.01, 0.98, 0.38
101, -147649.06, -147259.23, -152807.30, -153649.19, -152522.39, -151646.80, -151563.67, -154056.84, 0.01, 0.98, 0.38
102, -147616.81, -147226.52, -152771.53, -153616.69, -152490.72, -151614.14, -151529.16, -154022.36, 0.01, 0.98, 0.38
103, -147630.67, -147240.38, -152775.47, -153631.14, -152506.73, -151628.58, -151536.38, -154033.55, 0.02, 0.98, 0.38
104, -147660.16, -147270.36, -152808.08, -153661.20, -152536.39, -151658.45, -151567.38, -154064.89, 0.02, 0.98, 0.38
105, -147649.25, -147258.86, -152806.17, -153649.00, -152522.58, -151646.36, -151562.84, -154057.16, 0.02, 0.98, 0.38
106, -147612.95, -147219.98, -152768.67, -153611.95, -152485.70, -151609.16, -151525.95, -154020.14, 0.02, 0.98, 0.38
107, -147614.72, -147224.39, -152762.52, -153615.05, -152490.84, -151612.86, -151521.78, -154019.77, 0.02, 0.98, 0.38
108, -147648.98, -147260.23, -152797.95, -153651.63, -152527.31, -151649.14, -151556.63, -154055.08, 0.02, 0.99, 0.38
109, -147647.03, -147256.89, -152804.88, -153648.95, -152522.53, -151647.17, -151561.42, -154056.13, 0.02, 0.99, 0.38
110, -147608.03, -147215.33, -152764.80, -153607.98, -152481.41, -151605.78, -151522.78, -154016.08, 0.02, 0.99, 0.38
111, -147603.36, -147210.95, -152752.08, -153604.47, -152479.42, -151601.75, -151512.28, -154008.67, 0.02, 0.99, 0.38
112, -147635.77, -147245.48, -152784.16, -153639.67, -152514.94, -151637.30, -151543.89, -154041.95, 0.02, 0.99, 0.38
113, -147644.16, -147251.23, -152799.22, -153645.97, -152519.73, -151643.91, -151556.80, -154051.45, 0.02, 0.99, 0.38
114, -147608.36, -147214.03, -152764.33, -153607.34, -152481.11, -151605.47, -151522.52, -154013.97, 0.02, 0.98, 0.38
115, -147593.38, -147201.92, -152741.64, -153594.00, -152468.86, -151592.23, -151503.05, -153996.19, 0.02, 0.98, 0.38
116, -147622.30, -147231.53, -152767.31, -153624.63, -152500.03, -151622.45, -151528.66, -154022.92, 0.02, 0.98, 0.38
117, -147637.92, -147245.64, -152789.95, -153639.47, -152513.75, -151637.31, -151549.11, -154039.55, 0.02, 0.98, 0.38
118, -147602.73, -147211.13, -152760.80, -153604.00, -152477.58, -151602.56, -151519.83, -154007.02, 0.02, 0.98, 0.38
119, -147579.38, -147189.50, -152732.13, -153583.13, -152457.48, -151581.53, -151493.61, -153982.50, 0.02, 0.98, 0.38
120, -147609.59, -147218.75, -152755.91, -153613.97, -152488.83, -151611.86, -151517.23, -154008.91, 0.02, 0.98, 0.38
121, -147631.80, -147239.23, -152783.17, -153635.05, -152509.02, -151632.94, -151542.78, -154031.66, 0.02, 0.98, 0.38
122, -147605.08, -147210.58, -152761.72, -153605.23, -152478.36, -151603.63, -151520.13, -154005.28, 0.02, 0.98, 0.38
123, -147574.75, -147181.11, -152725.80, -153575.45, -152449.58, -151573.81, -151486.91, -153973.09, 0.02, 0.98, 0.38
124, -147593.39, -147201.72, -152738.19, -153596.58, -152472.02, -151594.44, -151501.39, -153989.81, 0.02, 0.99, 0.38
125, -147623.14, -147229.28, -152772.48, -153626.02, -152500.81, -151623.81, -151533.58, -154020.72, 0.02, 0.99, 0.38
126, -147604.48, -147209.50, -152761.81, -153605.56, -152478.48, -151603.98, -151520.14, -154004.05, 0.02, 0.99, 0.38
127, -147571.06, -147178.09, -152724.56, -153572.11, -152445.52, -151570.58, -151484.78, -153968.69, 0.02, 0.99, 0.38
128, -147584.73, -147193.92, -152729.84, -153587.91, -152462.45, -151584.56, -151492.61, -153979.91, 0.02, 0.99, 0.38
129, -147616.44, -147226.27, -152764.31, -153620.98, -152494.81, -151617.84, -151525.84, -154014.16, 0.02, 0.99, 0.37
130, -147607.30, -147215.06, -152765.30, -153610.97, -152483.42, -151608.48, -151523.83, -154008.75, 0.02, 0.99, 0.37
131, -147569.98, -147177.17, -152725.64, -153572.89, -152445.53, -151570.34, -151486.27, -153970.23, 0.02, 0.99, 0.37
132, -147569.91, -147179.30, -152717.89, -153575.45, -152449.38, -151572.52, -151481.41, -153968.52, 0.02, 0.99, 0.37
133, -147604.81, -147212.55, -152752.23, -153609.72, -152483.86, -151607.11, -151514.63, -154002.98, 0.02, 0.99, 0.37
134, -147605.33, -147210.66, -152760.11, -153607.53, -152480.09, -151605.06, -151519.55, -154005.45, 0.02, 0.98, 0.38
135, -147565.05, -147170.25, -152721.28, -153566.53, -152439.30, -151564.05, -151480.94, -153965.53, 0.02, 0.98, 0.38
136, -147556.98, -147161.05, -152704.86, -153559.66, -152433.66, -151556.64, -151466.95, -153953.89, 0.02, 0.98, 0.38
137, -147590.33, -147197.98, -152736.91, -153594.52, -152469.25, -151591.31, -151498.89, -153987.58, 0.02, 0.98, 0.38
138, -147598.64, -147206.97, -152753.89, -153601.56, -152475.53, -151598.67, -151512.88, -153999.20, 0.02, 0.98, 0.38
139, -147564.95, -147170.78, -152722.17, -153565.67, -152439.00, -151563.33, -151481.55, -153965.89, 0.02, 0.98, 0.37
140, -147547.70, -147155.23, -152698.50, -153549.50, -152424.16, -151547.50, -151459.34, -153946.77, 0.02, 0.98, 0.37
141, -147575.88, -147185.19, -152722.53, -153580.42, -152455.80, -151578.02, -151484.89, -153975.31, 0.02, 0.98, 0.37
142, -147595.20, -147203.02, -152749.16, -153598.98, -152472.95, -151596.50, -151508.80, -153997.19, 0.02, 0.98, 0.37
143, -147563.53, -147169.16, -152723.66, -153565.44, -152438.72, -151563.89, -151481.34, -153967.17, 0.02, 0.98, 0.37
144, -147536.86, -147143.47, -152690.55, -153539.88, -152413.92, -151538.70, -151450.91, -153939.20, 0.02, 0.98, 0.37
145, -147563.44, -147170.67, -152709.28, -153567.52, -152442.06, -151565.00, -151471.42, -153962.95, 0.03, 0.98, 0.38
146, -147589.55, -147195.11, -152740.78, -153592.55, -152466.34, -151590.31, -151500.47, -153990.42, 0.03, 0.98, 0.38
147, -147566.19, -147171.55, -152724.13, -153566.88, -152440.05, -151564.94, -151482.73, -153968.73, 0.03, 0.98, 0.38
148, -147532.73, -147139.50, -152686.61, -153534.58, -152408.72, -151532.50, -151447.69, -153935.05, 0.03, 0.98, 0.38
149, -147548.53, -147156.34, -152695.83, -153552.77, -152427.98, -151550.86, -151458.13, -153950.09, 0.03, 0.98, 0.38
150, -147579.98, -147186.61, -152730.84, -153584.17, -152458.47, -151582.16, -151490.86, -153982.45, 0.02, 0.98, 0.38
151, -147561.41, -147166.36, -152719.23, -153562.98, -152436.45, -151561.19, -151477.97, -153965.20, 0.02, 0.98, 0.38
152, -147525.73, -147132.39, -152681.50, -153527.84, -152401.81, -151525.98, -151441.72, -153929.42, 0.02, 0.98, 0.38
153, -147534.58, -147142.25, -152681.44, -153538.39, -152413.09, -151536.16, -151444.48, -153936.09, 0.02, 0.98, 0.38
154, -147569.09, -147176.13, -152718.09, -153573.69, -152447.92, -151571.36, -151479.56, -153971.59, 0.02, 0.98, 0.38
155, -147564.11, -147169.38, -152720.92, -153566.00, -152438.92, -151564.30, -151479.64, -153968.67, 0.03, 0.99, 0.39
156, -147527.45, -147134.16, -152684.19, -153530.02, -152402.81, -151527.77, -151443.61, -153932.30, 0.03, 0.99, 0.39
157, -147525.52, -147133.97, -152674.91, -153530.94, -152405.61, -151528.86, -151437.41, -153929.47, 0.03, 0.99, 0.39
158, -147557.77, -147165.09, -152705.73, -153562.94, -152437.95, -151560.94, -151467.78, -153961.06, 0.03, 0.99, 0.39
159, -147560.00, -147165.31, -152716.88, -153563.61, -152436.45, -151561.52, -151475.33, -153965.61, 0.03, 0.99, 0.39
160, -147524.75, -147130.28, -152683.33, -153527.52, -152399.38, -151525.78, -151441.78, -153930.53, 0.02, 0.98, 0.38
161, -147515.77, -147123.25, -152665.67, -153520.63, -152394.23, -151518.41, -151428.09, -153920.19, 0.02, 0.98, 0.38
162, -147547.69, -147155.39, -152695.52, -153553.53, -152428.47, -151551.61, -151457.92, -153951.44, 0.02, 0.98, 0.38
163, -147560.00, -147165.58, -152715.25, -153564.09, -152437.73, -151562.50, -151475.02, -153965.77, 0.02, 0.98, 0.38
164, -147523.39, -147128.05, -152681.94, -153525.72, -152398.19, -151523.41, -151441.16, -153929.33, 0.02, 0.98, 0.38
165, -147504.91, -147110.86, -152657.20, -153508.52, -152382.50, -151505.84, -151418.33, -153908.47, 0.02, 0.98, 0.38
166, -147533.48, -147141.22, -152681.05, -153539.77, -152413.61, -151537.02, -151443.77, -153936.77, 0.02, 0.98, 0.38
167, -147554.30, -147160.55, -152707.92, -153559.31, -152432.25, -151556.58, -151468.09, -153958.83, 0.02, 0.98, 0.38
168, -147524.70, -147129.34, -152683.52, -153527.67, -152399.58, -151524.84, -151442.27, -153930.41, 0.02, 0.98, 0.38
169, -147499.61, -147105.92, -152652.78, -153503.78, -152376.84, -151501.19, -151414.20, -153904.88, 0.02, 0.98, 0.38
170, -147521.70, -147130.11, -152669.92, -153528.83, -152402.23, -151526.31, -151432.19, -153927.20, 0.02, 0.98, 0.38
171, -147546.34, -147153.64, -152699.83, -153553.42, -152425.39, -151550.95, -151460.02, -153953.88, 0.02, 0.98, 0.38
172, -147523.31, -147129.14, -152683.11, -153527.25, -152399.23, -151525.31, -151441.78, -153930.84, 0.02, 0.98, 0.38
173, -147493.34, -147099.47, -152648.95, -153497.67, -152370.19, -151493.95, -151409.75, -153899.53, 0.02, 0.98, 0.38
174, -147509.58, -147116.70, -152657.05, -153515.69, -152389.86, -151512.61, -151420.70, -153914.48, 0.02, 0.98, 0.38
175, -147541.88, -147147.45, -152692.61, -153547.16, -152421.14, -151544.59, -151454.23, -153947.83, 0.02, 0.98, 0.38
176, -147526.38, -147130.28, -152686.11, -153530.08, -152402.41, -151527.20, -151444.66, -153934.36, 0.01, 0.98, 0.37
177, -147491.47, -147095.42, -152647.75, -153495.22, -152368.08, -151492.81, -151409.33, -153899.25, 0.01, 0.98, 0.37
178, -147498.28, -147102.80, -152645.91, -153504.05, -152378.25, -151501.61, -151410.69, -153904.39, 0.01, 0.98, 0.37
179, -147529.13, -147134.63, -152677.63, -153534.42, -152408.36, -151532.16, -151440.47, -153934.73, 0.01, 0.98, 0.37
180, -147524.23, -147127.88, -152681.52, -153527.33, -152400.31, -151524.95, -151440.27, -153931.61, 0.01, 0.98, 0.37
181, -147487.31, -147089.61, -152645.00, -153490.14, -152363.20, -151487.72, -151403.47, -153895.06, 0.01, 0.98, 0.37
182, -147483.89, -147088.94, -152633.42, -153489.11, -152362.81, -151486.02, -151394.44, -153889.66, 0.01, 0.98, 0.37
183, -147515.98, -147123.17, -152665.61, -153523.02, -152396.52, -151520.03, -151425.73, -153922.36, 0.01, 0.98, 0.37
184, -147517.44, -147123.11, -152674.77, -153522.38, -152395.02, -151520.13, -151432.75, -153926.06, 0.01, 0.98, 0.37
185, -147481.50, -147086.81, -152641.13, -153485.47, -152358.16, -151483.27, -151399.36, -153890.80, 0.01, 0.98, 0.37
186, -147474.03, -147079.70, -152625.64, -153478.97, -152353.08, -151476.67, -151386.38, -153880.72, 0.02, 0.98, 0.37
187, -147507.25, -147110.77, -152655.23, -153512.31, -152387.02, -151511.00, -151415.31, -153912.44, 0.02, 0.98, 0.37
188, -147517.55, -147120.39, -152673.45, -153522.66, -152396.38, -151520.73, -151431.81, -153925.97, 0.02, 0.98, 0.37
189, -147484.41, -147088.39, -152643.39, -153486.92, -152359.81, -151484.66, -151401.30, -153892.38, 0.02, 0.98, 0.37
190, -147463.78, -147067.56, -152615.53, -153466.27, -152339.81, -151463.22, -151374.19, -153867.45, 0.02, 0.98, 0.37
191, -147490.95, -147095.50, -152637.02, -153495.25, -152370.14, -151492.27, -151397.77, -153893.34, 0.02, 0.98, 0.38
192, -147510.59, -147115.38, -152663.28, -153514.92, -152388.53, -151511.83, -151421.86, -153915.06, 0.02, 0.98, 0.38
193, -147481.25, -147083.77, -152640.22, -153483.20, -152356.55, -151480.97, -151397.25, -153887.33, 0.02, 0.98, 0.38
194, -147456.53, -147059.66, -152609.55, -153459.73, -152333.09, -151456.80, -151368.84, -153860.89, 0.02, 0.98, 0.38
195, -147478.95, -147085.16, -152626.58, -153485.16, -152359.45, -151482.17, -151387.28, -153883.00, 0.02, 0.98, 0.38
196, -147504.92, -147111.75, -152658.44, -153511.13, -152384.44, -151508.36, -151416.28, -153911.06, 0.02, 0.99, 0.37
197, -147480.45, -147085.30, -152640.84, -153485.22, -152356.86, -151482.50, -151397.39, -153888.36, 0.02, 0.99, 0.37
198, -147447.69, -147051.98, -152604.31, -153453.14, -152324.66, -151449.73, -151362.30, -153853.91, 0.02, 0.99, 0.37
199, -147463.08, -147067.50, -152610.38, -153468.77, -152341.81, -151465.09, -151370.45, -153865.52, 0.02, 0.99, 0.37
200, -147494.95, -147098.97, -152644.55, -153499.02, -152372.38, -151496.56, -151402.94, -153897.61, 0.02, 0.99, 0.37
201, -147480.41, -147084.47, -152637.58, -153482.92, -152355.16, -151480.58, -151394.95, -153886.23, 0.02, 0.99, 0.37
202, -147441.73, -147046.09, -152596.78, -153443.56, -152316.16, -151441.02, -151355.61, -153846.77, 0.02, 0.99, 0.38
203, -147447.84, -147054.17, -152595.28, -153451.94, -152326.02, -151449.58, -151356.33, -153851.09, 0.02, 0.99, 0.38
204, -147479.47, -147086.13, -152628.77, -153485.25, -152359.00, -151482.81, -151388.56, -153884.14, 0.02, 0.99, 0.38
205, -147474.38, -147079.53, -152633.52, -153479.34, -152351.66, -151477.03, -151389.91, -153882.39, 0.02, 0.99, 0.38
206, -147437.41, -147042.27, -152596.50, -153441.72, -152313.86, -151439.14, -151353.58, -153845.00, 0.02, 0.99, 0.38
207, -147436.81, -147042.44, -152585.45, -153440.77, -152314.27, -151438.27, -151345.80, -153840.23, 0.02, 0.99, 0.37
208, -147470.39, -147077.17, -152618.08, -153474.88, -152349.59, -151472.92, -151378.03, -153873.81, 0.02, 0.99, 0.37
209, -147476.05, -147081.72, -152630.48, -153478.63, -152350.94, -151476.72, -151387.94, -153881.16, 0.02, 0.99, 0.37
210, -147440.30, -147044.88, -152597.14, -153442.08, -152314.17, -151440.22, -151354.75, -153846.16, 0.02, 0.99, 0.37
211, -147426.00, -147032.55, -152575.78, -153429.91, -152303.02, -151427.92, -151335.97, -153830.48, 0.02, 0.99, 0.37
212, -147458.45, -147065.91, -152604.25, -153462.63, -152337.23, -151461.27, -151365.20, -153861.95, 0.02, 0.98, 0.38
213, -147471.16, -147077.47, -152624.08, -153474.31, -152347.52, -151472.97, -151382.75, -153876.98, 0.02, 0.98, 0.38
214, -147435.88, -147043.00, -152594.66, -153438.48, -152311.06, -151436.91, -151352.69, -153843.63, 0.02, 0.98, 0.38
215, -147416.98, -147024.86, -152568.44, -153419.84, -152293.73, -151418.13, -151328.86, -153822.06, 0.02, 0.98, 0.38
216, -147445.27, -147053.53, -152589.47, -153449.91, -152323.05, -151448.28, -151350.94, -153848.17, 0.02, 0.98, 0.38
217, -147468.17, -147075.80, -152620.13, -153472.53, -152344.98, -151470.59, -151377.72, -153873.58, 0.02, 0.99, 0.38
218, -147440.28, -147049.86, -152597.77, -153442.08, -152314.69, -151440.59, -151355.44, -153847.81, 0.02, 0.99, 0.38
219, -147413.81, -147023.52, -152565.02, -153416.00, -152289.00, -151414.25, -151325.38, -153819.48, 0.02, 0.99, 0.38
220, -147432.41, -147043.67, -152578.81, -153436.92, -152311.17, -151434.83, -151339.28, -153836.72, 0.02, 0.99, 0.38
221, -147456.67, -147066.78, -152605.97, -153460.67, -152334.00, -151458.41, -151365.50, -153861.67, 0.02, 0.99, 0.38
222, -147436.14, -147045.39, -152593.97, -153438.64, -152310.97, -151436.80, -151351.06, -153843.97, 0.02, 0.99, 0.38
223, -147401.53, -147010.48, -152555.72, -153403.77, -152276.97, -151402.53, -151314.84, -153808.58, 0.02, 0.99, 0.38
224, -147414.95, -147026.06, -152561.20, -153419.23, -152293.72, -151417.69, -151322.91, -153820.08, 0.02, 0.99, 0.38
225, -147448.91, -147059.81, -152596.06, -153452.34, -152326.38, -151450.98, -151357.30, -153854.25, 0.02, 0.99, 0.38
226, -147438.88, -147047.94, -152595.63, -153440.73, -152313.98, -151440.19, -151353.73, -153847.67, 0.02, 0.99, 0.38
227, -147402.02, -147012.48, -152557.05, -153403.59, -152276.78, -151402.94, -151316.05, -153809.86, 0.02, 0.99, 0.38
228, -147409.06, -147021.67, -152555.61, -153410.34, -152286.59, -151410.91, -151316.88, -153813.56, 0.02, 0.99, 0.38
229, -147444.08, -147056.64, -152591.75, -153445.92, -152322.53, -151446.77, -151351.81, -153849.53, 0.02, 0.99, 0.38
230, -147442.00, -147052.50, -152598.27, -153442.38, -152317.56, -151443.70, -151355.44, -153850.42, 0.02, 0.99, 0.38
231, -147404.25, -147015.36, -152561.61, -153405.20, -152280.28, -151406.44, -151319.97, -153813.91, 0.02, 0.99, 0.38
232, -147397.41, -147009.34, -152546.61, -153399.39, -152276.00, -151400.20, -151307.47, -153804.25, 0.02, 0.99, 0.38
233, -147433.69, -147043.14, -152578.34, -153433.59, -152310.75, -151435.23, -151338.83, -153837.63, 0.02, 1.00, 0.38
234, -147443.09, -147051.39, -152595.88, -153442.11, -152317.50, -151443.08, -151353.25, -153849.11, 0.02, 1.00, 0.38
235, -147405.44, -147015.44, -152562.03, -153403.95, -152279.41, -151404.59, -151319.56, -153813.05, 0.02, 1.00, 0.38
236, -147390.13, -147003.66, -152539.45, -153389.89, -152266.38, -151390.81, -151299.47, -153795.69, 0.02, 1.00, 0.38
237, -147421.08, -147035.78, -152567.69, -153423.02, -152299.91, -151423.50, -151327.47, -153825.95, 0.02, 1.00, 0.38
238, -147437.33, -147049.69, -152590.13, -153437.19, -152313.09, -151437.80, -151347.41, -153843.34, 0.02, 0.99, 0.38
239, -147407.89, -147019.94, -152564.86, -153405.77, -152281.00, -151406.73, -151321.69, -153815.33, 0.02, 0.99, 0.38
240, -147385.88, -146999.13, -152537.89, -153385.20, -152261.83, -151386.44, -151296.63, -153792.45, 0.02, 0.99, 0.38
241, -147413.30, -147027.48, -152560.00, -153414.48, -152292.31, -151415.72, -151319.88, -153818.58, 0.02, 0.99, 0.38
242, -147434.30, -147047.72, -152587.13, -153435.25, -152311.95, -151436.50, -151344.58, -153841.59, 0.02, 0.99, 0.38
243, -147407.67, -147019.88, -152567.17, -153406.63, -152282.59, -151408.55, -151323.19, -153817.14, 0.02, 0.99, 0.38
244, -147379.55, -146992.13, -152533.47, -153379.19, -152255.86, -151381.16, -151292.34, -153787.97, 0.02, 0.99, 0.38
245, -147399.83, -147013.72, -152546.27, -153400.83, -152278.56, -151402.53, -151306.55, -153805.80, 0.02, 0.99, 0.38
246, -147430.20, -147041.97, -152580.11, -153430.03, -152307.28, -151431.86, -151338.67, -153837.02, 0.02, 0.99, 0.38
247, -147411.53, -147022.39, -152569.89, -153410.33, -152287.06, -151412.86, -151327.77, -153822.63, 0.02, 0.99, 0.38
248, -147378.44, -146991.30, -152533.86, -153377.53, -152254.83, -151379.70, -151293.08, -153788.38, 0.02, 0.99, 0.37
249, -147391.31, -147007.95, -152539.50, -153392.19, -152270.50, -151393.72, -151299.48, -153798.22, 0.02, 0.99, 0.37
250, -147425.31, -147040.77, -152574.30, -153424.97, -152303.13, -151426.81, -151332.50, -153831.27, 0.02, 0.99, 0.37
251, -147415.47, -147029.34, -152572.89, -153413.61, -152290.45, -151416.09, -151328.95, -153824.63, 0.02, 0.99, 0.37
252, -147379.22, -146992.94, -152536.50, -153377.59, -152255.00, -151380.02, -151294.11, -153789.41, 0.02, 0.99, 0.37
253, -147382.06, -146997.66, -152531.11, -153382.34, -152260.77, -151384.38, -151290.95, -153789.67, 0.02, 0.99, 0.37
254, -147417.95, -147033.23, -152567.39, -153418.92, -152297.19, -151421.31, -151325.53, -153825.45, 0.02, 0.99, 0.37
255, -147416.88, -147031.11, -152575.48, -153416.84, -152294.14, -151420.14, -151331.41, -153828.08, 0.02, 0.99, 0.37
0, -147378.41, -146992.91, -152536.56, -153376.91, -152253.89, -151378.61, -151293.97, -153789.08, 0.02, 0.99, 0.37
1, -147371.14, -146986.98, -152521.19, -153371.08, -152249.28, -151372.95, -151281.09, -153779.34, 0.02, 0.99, 0.37
2, -147403.88, -147020.06, -152552.19, -153404.95, -152283.81, -151407.22, -151311.89, -153811.88, 0.02, 0.99, 0.37
3, -147412.19, -147026.50, -152568.33, -153411.17, -152289.11, -151413.78, -151325.11, -153821.61, 0.03, 0.99, 0.38
4, -147377.58, -146992.00, -152537.17, -153375.08, -152252.50, -151377.83, -151293.30, -153788.11, 0.03, 0.99, 0.38
5, -147361.78, -146979.03, -152514.94, -153361.33, -152239.88, -151363.97, -151273.31, -153771.30, 0.03, 0.99, 0.38
6, -147392.45, -147010.08, -152541.69, -153393.73, -152272.97, -151395.98, -151300.45, -153800.66, 0.03, 0.99, 0.38
7, -147412.36, -147028.08, -152569.30, -153413.34, -152291.13, -151415.22, -151325.02, -153822.78, 0.03, 0.99, 0.38
8, -147381.23, -146995.95, -152541.53, -153379.19, -152255.86, -151381.70, -151296.81, -153792.09, 0.02, 0.99, 0.38
9, -147357.31, -146973.20, -152510.16, -153355.14, -152233.28, -151358.09, -151268.59, -153766.05, 0.02, 0.99, 0.38
10, -147379.44, -146998.05, -152528.91, -153380.89, -152259.88, -151383.36, -151287.94, -153788.13, 0.02, 0.99, 0.38
11, -147404.97, -147022.55, -152559.66, -153406.20, -152283.80, -151408.66, -151316.75, -153815.78, 0.02, 0.99, 0.38
12, -147381.91, -146996.95, -152542.63, -153380.44, -152257.02, -151383.47, -151298.22, -153794.75, 0.02, 0.99, 0.38
13, -147351.39, -146967.14, -152507.28, -153350.42, -152227.88, -151353.30, -151265.00, -153762.70, 0.02, 0.99, 0.39
14, -147369.22, -146986.34, -152518.05, -153369.53, -152248.80, -151372.02, -151277.31, -153777.56, 0.02, 0.99, 0.39
15, -147397.95, -147015.27, -152551.08, -153398.41, -152277.16, -151400.81, -151308.39, -153807.89, 0.02, 0.99, 0.39
16, -147381.09, -146996.69, -152541.48, -153380.06, -152257.23, -151382.92, -151297.36, -153793.77, 0.02, 0.99, 0.39
17, -147347.88, -146965.52, -152505.98, -153347.00, -152224.56, -151350.23, -151262.78, -153760.14, 0.02, 0.99, 0.39
18, -147357.94, -146976.95, -152508.09, -153358.23, -152237.22, -151361.97, -151266.78, -153767.97, 0.02, 0.98, 0.38
19, -147389.34, -147007.06, -152540.19, -153389.20, -152267.95, -151391.48, -151298.06, -153799.20, 0.02, 0.98, 0.38
20, -147380.67, -146997.19, -152539.72, -153379.05, -152257.11, -151381.70, -151296.45, -153793.20, 0.02, 0.98, 0.38
21, -147345.89, -146961.02, -152504.41, -153343.47, -152221.44, -151345.84, -151261.31, -153757.47, 0.02, 0.98, 0.38
22, -147349.00, -146966.11, -152498.91, -153347.77, -152227.27, -151349.83, -151257.67, -153757.20, 0.02, 0.98, 0.38
23, -147385.09, -147002.95, -152534.28, -153384.95, -152264.53, -151387.02, -151292.81, -153793.45, 0.02, 0.99, 0.38
24, -147386.69, -147003.44, -152545.05, -153385.75, -152264.08, -151388.56, -151301.23, -153799.08, 0.02, 0.99, 0.38
25, -147350.27, -146967.34, -152510.63, -153348.50, -152226.81, -151351.75, -151266.78, -153763.28, 0.02, 0.99, 0.38
26, -147343.61, -146961.19, -152494.64, -153342.38, -152222.13, -151345.53, -151254.16, -153753.53, 0.02, 0.99, 0.38
27, -147378.66, -146996.64, -152527.67, -153379.03, -152259.61, -151381.81, -151287.08, -153787.97, 0.02, 0.99, 0.38
28, -147387.39, -147006.45, -152546.31, -153388.38, -152267.25, -151391.22, -151302.55, -153800.77, 0.02, 0.99, 0.38
29, -147353.45, -146970.97, -152514.42, -153352.23, -152230.38, -151355.55, -151271.13, -153767.64, 0.02, 0.99, 0.38
30, -147335.47, -146954.88, -152490.08, -153335.36, -152214.95, -151339.09, -151248.64, -153748.08, 0.02, 0.99, 0.38
31, -147366.31, -146986.67, -152515.78, -153367.86, -152247.61, -151371.86, -151275.17, -153777.73, 0.02, 0.99, 0.38
32, -147385.13, -147004.56, -152541.02, -153385.67, -152264.23, -151389.86, -151297.66, -153798.34, 0.02, 0.99, 0.38
33, -147354.16, -146972.48, -152514.80, -153352.50, -152229.83, -151355.86, -151269.88, -153767.03, 0.02, 0.99, 0.38
34, -147329.44, -146946.13, -152484.58, -153328.64, -152206.97, -151331.50, -151241.64, -153740.02, 0.02, 0.99, 0.38
35, -147354.00, -146972.11, -152503.98, -153355.42, -152235.41, -151358.97, -151262.75, -153764.06, 0.02, 0.99, 0.38
36, -147381.11, -147001.27, -152535.20, -153381.55, -152260.53, -151384.84, -151292.56, -153792.52, 0.02, 0.99, 0.38
37, -147359.28, -146979.95, -152520.78, -153357.86, -152235.31, -151360.55, -151275.63, -153772.55, 0.02, 0.99, 0.38
38, -147330.78, -146951.81, -152488.27, -153329.75, -152208.02, -151332.92, -151244.64, -153743.42, 0.02, 0.99, 0.38
39, -147347.09, -146968.02, -152496.48, -153347.31, -152226.86, -151350.34, -151254.78, -153757.13, 0.02, 0.99, 0.38
40, -147376.31, -146997.16, -152529.50, -153376.48, -152255.56, -151379.91, -151285.75, -153787.70, 0.02, 0.99, 0.38
41, -147361.20, -146981.38, -152522.98, -153360.13, -152237.41, -151363.80, -151276.72, -153775.48, 0.02, 0.99, 0.38
42, -147326.95, -146946.05, -152486.03, -153325.34, -152202.83, -151328.64, -151240.86, -153740.08, 0.02, 0.99, 0.38
43, -147333.69, -146953.64, -152483.63, -153333.72, -152212.09, -151336.53, -151241.28, -153743.70, 0.02, 0.99, 0.38
44, -147366.83, -146988.16, -152518.75, -153367.63, -152246.13, -151370.34, -151274.77, -153777.30, 0.02, 0.97, 0.37
45, -147360.67, -146981.13, -152521.75, -153360.31, -152237.72, -151363.50, -151275.22, -153774.45, 0.02, 0.97, 0.37
46, -147323.47, -146944.61, -152484.94, -153322.84, -152200.13, -151325.94, -151239.20, -153737.34, 0.02, 0.97, 0.37
47, -147322.11, -146944.50, -152475.34, -153323.22, -152201.77, -151325.84, -151232.48, -153733.75, 0.02, 0.97, 0.37
48, -147356.03, -146979.44, -152508.98, -153358.42, -152237.41, -151361.34, -151265.38, -153768.13, 0.02, 0.97, 0.37
49, -147357.00, -146978.98, -152518.67, -153357.64, -152235.73, -151361.03, -151271.92, -153771.77, 0.03, 0.98, 0.38
50, -147319.25, -146938.78, -152482.23, -153318.19, -152195.80, -151321.48, -151235.31, -153733.75, 0.03, 0.98, 0.38
51, -147305.86, -146927.11, -152462.23, -153307.23, -152186.23, -151310.52, -151217.69, -153719.36, 0.03, 0.98, 0.38
52, -147337.59, -146960.45, -152490.97, -153340.09, -152220.09, -151343.88, -151247.23, -153751.09, 0.03, 0.98, 0.38
53, -147351.36, -146971.25, -152511.42, -153351.77, -152230.50, -151355.19, -151264.64, -153765.28, 0.03, 0.98, 0.38
54, -147318.44, -146938.22, -152482.52, -153317.34, -152195.73, -151320.70, -151235.45, -153733.08, 0.03, 0.99, 0.38
55, -147299.58, -146921.83, -152456.48, -153299.52, -152179.45, -151303.20, -151212.70, -153712.53, 0.03, 0.99, 0.38
56, -147325.58, -146949.06, -152478.19, -153328.38, -152208.92, -151332.38, -151236.09, -153739.31, 0.03, 0.99, 0.38
57, -147343.70, -146967.30, -152503.42, -153346.42, -152225.92, -151350.52, -151258.98, -153760.08, 0.03, 0.99, 0.38
58, -147315.36, -146937.75, -152481.50, -153316.42, -152194.92, -151320.39, -151234.89, -153732.47, 0.03, 0.99, 0.38
59, -147289.61, -146912.88, -152450.17, -153291.66, -152170.72, -151295.42, -151206.06, -153704.81, 0.03, 1.00, 0.38
60, -147311.42, -146935.41, -152463.39, -153314.05, -152193.94, -151318.28, -151221.81, -153723.17, 0.03, 1.00, 0.38
61, -147336.30, -146959.25, -152492.48, -153337.97, -152217.70, -151341.89, -151249.48, -153749.13, 0.03, 1.00, 0.38
62, -147317.13, -146938.42, -152480.00, -153316.69, -152194.97, -151320.88, -151235.81, -153730.69, 0.03, 1.00, 0.38
63, -147284.77, -146907.14, -152445.80, -153286.14, -152164.77, -151290.53, -151202.61, -153697.78, 0.03, 1.00, 0.38
64, -147298.77, -146922.97, -152452.13, -153303.17, -152182.61, -151307.47, -151211.31, -153709.91, 0.03, 1.00, 0.38
65, -147330.53, -146953.38, -152484.64, -153332.94, -152212.05, -151337.22, -151242.45, -153739.73, 0.03, 0.99, 0.37
66, -147313.77, -146936.31, -152476.78, -153314.77, -152192.58, -151319.52, -151232.23, -153725.25, 0.03, 0.99, 0.37
67, -147278.59, -146902.55, -152441.44, -153280.91, -152159.00, -151285.16, -151197.34, -153689.63, 0.03, 0.99, 0.37
68, -147284.48, -146910.30, -152440.09, -153289.27, -152168.70, -151292.83, -151197.56, -153692.20, 0.03, 0.99, 0.37
69, -147315.17, -146941.13, -152471.38, -153319.80, -152199.81, -151323.67, -151228.05, -153722.53, 0.03, 0.99, 0.37
70, -147311.02, -146936.42, -152475.48, -153313.84, -152192.83, -151318.64, -151230.28, -153721.64, 0.03, 0.98, 0.37
71, -147275.13, -146900.84, -152440.95, -153278.00, -152157.06, -151282.69, -151196.11, -153685.61, 0.03, 0.98, 0.37
72, -147273.19, -146898.03, -152429.39, -153276.41, -152157.06, -151280.41, -151187.13, -153678.47, 0.03, 0.98, 0.37
73, -147309.88, -146933.80, -152463.19, -153313.25, -152193.72, -151317.23, -151221.39, -153714.08, 0.03, 0.98, 0.37
74, -147316.75, -146940.41, -152478.72, -153318.72, -152197.77, -151322.94, -151233.81, -153723.27, 0.03, 0.98, 0.37
75, -147281.11, -146905.69, -152446.33, -153282.78, -152161.31, -151287.00, -151201.41, -153688.63, 0.03, 0.98, 0.37
76, -147268.63, -146894.00, -152424.77, -153271.19, -152150.84, -151275.23, -151183.08, -153673.30, 0.03, 0.98, 0.37
77, -147300.45, -146925.20, -152453.67, -153304.38, -152184.28, -151307.72, -151211.09, -153704.02, 0.03, 0.98, 0.37
78, -147312.50, -146935.95, -152474.19, -153316.31, -152194.98, -151319.47, -151228.81, -153719.06, 0.03, 0.98, 0.37
79, -147277.63, -146900.75, -152443.78, -153279.78, -152158.00, -151283.27, -151198.23, -153685.83, 0.03, 0.98, 0.37
80, -147257.28, -146881.33, -152415.63, -153259.63, -152138.81, -151262.56, -151172.80, -153662.53, 0.02, 0.97, 0.37
81, -147285.52, -146909.98, -152437.70, -153289.28, -152168.86, -151292.05, -151196.09, -153688.78, 0.02, 0.97, 0.37
82, -147308.88, -146932.73, -152467.09, -153311.53, -152190.66, -151314.69, -151223.50, -153714.44, 0.02, 0.97, 0.37
83, -147280.59, -146903.28, -152445.33, -153281.59, -152159.70, -151284.63, -151200.31, -153687.95, 0.02, 0.97, 0.37
84, -147254.00, -146877.80, -152414.48, -153255.78, -152134.44, -151259.38, -151170.34, -153660.22, 0.02, 0.97, 0.37
85, -147273.27, -146897.52, -152425.69, -153276.61, -152155.41, -151280.17, -151182.81, -153677.61, 0.02, 0.98, 0.37
86, -147300.06, -146923.36, -152456.50, -153302.83, -152181.33, -151305.69, -151212.09, -153705.77, 0.02, 0.98, 0.37
87, -147279.17, -146902.05, -152443.16, -153280.02, -152157.91, -151283.73, -151197.97, -153688.13, 0.02, 0.98, 0.37
88, -147249.67, -146871.31, -152408.53, -153248.66, -152127.42, -151252.50, -151165.30, -153656.08, 0.02, 0.98, 0.37
89, -147261.38, -146883.55, -152412.72, -153262.13, -152142.23, -151265.41, -151171.06, -153664.73, 0.02, 0.98, 0.37
90, -147291.86, -146914.13, -152446.20, -153293.33, -152172.92, -151296.25, -151202.48, -153696.05, 0.02, 0.98, 0.37
91, -147280.69, -146902.41, -152443.61, -153280.64, -152158.84, -151283.91, -151197.19, -153687.73, 0.03, 0.98, 0.38
92, -147244.28, -146866.95, -152406.64, -153244.25, -152123.53, -151248.02, -151161.47, -153651.92, 0.03, 0.98, 0.38
93, -147246.56, -146869.38, -152400.20, -153248.11, -152128.45, -151251.66, -151157.80, -153652.06, 0.03, 0.98, 0.38
94, -147278.59, -146901.45, -152431.34, -153280.14, -152159.66, -151283.63, -151187.75, -153683.73, 0.03, 0.98, 0.38
95, -147274.67, -146897.89, -152435.89, -153275.20, -152153.27, -151278.97, -151190.14, -153683.30, 0.03, 0.98, 0.38
96, -147238.58, -146860.95, -152399.91, -153237.61, -152115.95, -151241.58, -151155.25, -153647.09, 0.03, 0.99, 0.38
97, -147234.02, -146857.11, -152387.39, -153233.45, -152113.63, -151237.34, -151144.77, -153639.27, 0.03, 0.99, 0.38
98, -147265.98, -146889.95, -152417.17, -153266.59, -152147.16, -151270.23, -151175.06, -153670.97, 0.03, 0.99, 0.38
99, -147272.08, -146895.80, -152431.67, -153272.03, -152151.47, -151276.09, -151187.75, -153680.84, 0.03, 0.99, 0.38
100, -147232.97, -146856.52, -152396.33, -153232.47, -152111.30, -151237.47, -151152.58, -153644.03, 0.03, 0.99, 0.38
101, -147219.36, -146842.06, -152375.09, -153219.55, -152099.17, -151222.73, -151132.75, -153626.58, 0.03, 0.99, 0.38
102, -147250.36, -146872.95, -152400.72, -153251.25, -152131.69, -151254.05, -151159.05, -153655.34, 0.03, 0.99, 0.38
103, -147267.23, -146889.33, -152423.95, -153266.69, -152146.33, -151270.08, -151180.52, -153674.30, 0.03, 0.99, 0.38
104, -147234.27, -146855.84, -152395.23, -153231.47, -152110.17, -151235.58, -151151.19, -153642.78, 0.03, 0.99, 0.38
105, -147210.73, -146833.00, -152365.13, -153208.70, -152088.44, -151212.50, -151123.53, -153617.08, 0.03, 0.99, 0.38
106, -147236.14, -146859.77, -152386.23, -153236.53, -152117.63, -151239.78, -151145.11, -153641.66, 0.02, 0.99, 0.38
107, -147260.58, -146882.61, -152417.56, -153261.14, -152140.83, -151264.39, -151173.38, -153669.09, 0.02, 0.99, 0.38
108, -147235.81, -146858.72, -152400.45, -153235.78, -152114.17, -151239.70, -151154.83, -153647.81, 0.02, 0.99, 0.38
109, -147209.13, -146831.23, -152367.13, -153207.77, -152086.98, -151211.78, -151123.58, -153618.27, 0.02, 0.99, 0.38
110, -147229.45, -146851.67, -152379.69, -153229.16, -152109.61, -151232.88, -151138.05, -153635.66, 0.02, 0.99, 0.38
111, -147257.06, -146880.13, -152411.56, -153256.83, -152136.78, -151260.22, -151167.84, -153664.17, 0.02, 0.99, 0.37
112, -147236.17, -146858.38, -152399.16, -153234.55, -152113.11, -151238.09, -151153.20, -153646.25, 0.02, 0.99, 0.37
113, -147202.34, -146825.03, -152361.20, -153201.13, -152079.39, -151204.66, -151117.77, -153611.94, 0.02, 0.99, 0.37
114, -147210.02, -146835.67, -152361.67, -153211.64, -152091.05, -151214.94, -151120.09, -153617.86, 0.02, 0.99, 0.37
115, -147240.13, -146864.72, -152393.34, -153241.31, -152120.73, -151245.17, -151150.25, -153647.92, 0.02, 0.99, 0.37
116, -147231.63, -146853.66, -152392.75, -153229.77, -152109.03, -151233.00, -151147.67, -153641.28, 0.02, 0.98, 0.38
117, -147197.44, -146818.08, -152357.23, -153195.03, -152073.59, -151198.44, -151112.70, -153606.70, 0.02, 0.98, 0.38
118, -147198.02, -146822.92, -152350.83, -153198.31, -152077.95, -151201.34, -151107.75, -153605.00, 0.02, 0.98, 0.38
119, -147232.86, -146856.95, -152384.89, -153232.94, -152113.25, -151235.86, -151141.58, -153639.09, 0.02, 0.98, 0.38
120, -147233.48, -146855.11, -152392.42, -153231.16, -152109.92, -151234.41, -151147.41, -153642.00, 0.02, 0.98, 0.38
121, -147196.47, -146818.03, -152358.78, -153194.53, -152072.70, -151197.72, -151112.73, -153606.30, 0.02, 0.98, 0.38
122, -147188.17, -146810.66, -152340.30, -153186.94, -152066.09, -151190.08, -151098.66, -153595.28, 0.02, 0.98, 0.38
123, -147221.48, -146845.61, -152371.41, -153221.84, -152101.63, -151225.02, -151130.27, -153629.06, 0.02, 0.98, 0.38
124, -147231.47, -146855.38, -152390.70, -153231.47, -152110.28, -151234.61, -151146.64, -153641.91, 0.02, 0.98, 0.38
125, -147195.69, -146819.16, -152358.17, -153193.64, -152072.41, -151197.14, -151113.80, -153605.58, 0.02, 0.98, 0.38
126, -147178.66, -146801.77, -152332.41, -153176.44, -152056.63, -151180.27, -151091.11, -153585.63, 0.02, 0.98, 0.38
127, -147206.66, -146831.48, -152355.92, -153206.16, -152086.94, -151210.16, -151115.67, -153613.39, 0.02, 0.98, 0.38
128, -147223.81, -146848.86, -152381.16, -153223.33, -152102.55, -151227.19, -151137.44, -153632.86, 0.02, 0.98, 0.38
129, -147192.89, -146815.47, -152354.72, -153190.38, -152068.19, -151193.66, -151109.91, -153601.94, 0.02, 0.98, 0.38
130, -147167.56, -146790.52, -152323.13, -153166.06, -152045.09, -151169.42, -151081.30, -153575.23, 0.02, 0.98, 0.38
131, -147190.86, -146815.27, -152341.48, -153190.89, -152071.67, -151195.52, -151100.16, -153597.38, 0.02, 0.98, 0.38
132, -147214.48, -146838.48, -152370.00, -153213.63, -152093.67, -151217.56, -151126.78, -153622.39, 0.02, 0.99, 0.37
133, -147186.03, -146807.80, -152347.73, -153183.20, -152061.80, -151187.03, -151103.63, -153595.69, 0.02, 0.99, 0.37
134, -147157.05, -146778.73, -152313.98, -153154.42, -152034.34, -151158.67, -151072.44, -153565.05, 0.02, 0.99, 0.37
135, -147174.55, -146797.56, -152323.80, -153172.97, -152054.27, -151177.16, -151083.73, -153579.72, 0.02, 0.99, 0.37
136, -147200.42, -146823.91, -152354.22, -153199.77, -152079.59, -151203.72, -151111.28, -153607.19, 0.02, 0.99, 0.37
137, -147182.70, -146805.84, -152345.27, -153181.08, -152059.67, -151185.83, -151100.78, -153593.52, 0.02, 0.99, 0.38
138, -147145.55, -146769.95, -152306.08, -153144.67, -152023.73, -151149.39, -151063.25, -153556.39, 0.02, 0.99, 0.38
139, -147154.77, -146779.13, -152307.00, -153154.86, -152034.86, -151159.23, -151065.20, -153561.75, 0.02, 0.99, 0.38
140, -147190.13, -146814.34, -152343.36, -153190.42, -152070.05, -151194.66, -151100.78, -153597.36, 0.02, 0.99, 0.38
141, -147181.97, -146803.84, -152344.13, -153181.13, -152059.42, -151185.20, -151099.27, -153592.27, 0.02, 0.99, 0.38
142, -147145.50, -146767.11, -152306.53, -153143.39, -152022.17, -151147.97, -151063.19, -153555.45, 0.02, 0.98, 0.38
143, -147147.92, -146771.45, -152300.89, -153147.06, -152027.52, -151151.45, -151059.39, -153554.38, 0.02, 0.98, 0.38
144, -147179.86, -146804.64, -152332.55, -153180.64, -152060.34, -151185.16, -151089.94, -153586.39, 0.02, 0.98, 0.38
145, -147181.56, -146805.00, -152342.11, -153180.05, -152059.11, -151184.47, -151097.27, -153590.83, 0.02, 0.98, 0.38
146, -147142.72, -146766.02, -152304.88, -153140.41, -152019.38, -151145.58, -151061.17, -153553.66, 0.02, 0.98, 0.38
147, -147131.30, -146754.80, -152285.14, -153129.77, -152010.13, -151134.78, -151043.78, -153539.47, 0.02, 0.98, 0.38
148, -147160.55, -146784.03, -152311.89, -153160.73, -152041.39, -151164.91, -151069.77, -153567.08, 0.02, 0.98, 0.38
149, -147175.50, -146797.09, -152334.75, -153173.97, -152053.53, -151178.41, -151089.41, -153584.13, 0.02, 0.98, 0.38
150, -147140.67, -146763.45, -152304.02, -153137.30, -152016.88, -151142.58, -151058.31, -153551.11, 0.02, 0.98, 0.38
151, -147122.34, -146746.39, -152278.00, -153120.64, -152001.80, -151126.13, -151036.23, -153531.77, 0.02, 0.98, 0.38
152, -147149.39, -146774.09, -152301.19, -153149.81, -152031.67, -151155.08, -151059.98, -153558.14, 0.02, 0.98, 0.38
153, -147170.63, -146794.00, -152327.83, -153169.50, -152049.81, -151174.34, -151083.97, -153579.88, 0.02, 0.98, 0.38
154, -147139.70, -146762.13, -152302.41, -153136.73, -152015.30, -151140.95, -151056.59, -153549.33, 0.02, 0.98, 0.38
155, -147113.66, -146736.89, -152270.34, -153111.75, -151990.56, -151115.69, -151026.58, -153521.31, 0.02, 0.98, 0.38
156, -147135.20, -146758.84, -152284.64, -153134.08, -152014.72, -151138.94, -151042.80, -153541.19, 0.02, 0.98, 0.38
157, -147159.14, -146782.17, -152315.02, -153158.80, -152038.66, -151163.91, -151071.13, -153568.08, 0.02, 0.98, 0.38
158, -147134.84, -146757.89, -152298.77, -153133.66, -152012.55, -151138.84, -151053.53, -153547.05, 0.01, 0.99, 0.39
159, -147103.31, -146725.88, -152262.09, -153101.20, -151980.44, -151106.02, -151018.38, -153512.84, 0.01, 0.99, 0.39
160, -147120.05, -146743.58, -152270.66, -153119.19, -151999.61, -151124.70, -151028.70, -153526.94, 0.01, 0.99, 0.39
161, -147150.56, -146774.73, -152304.89, -153150.84, -152030.77, -151155.59, -151061.89, -153559.66, 0.01, 0.99, 0.39
162, -147133.75, -146758.59, -152297.09, -153132.73, -152011.70, -151137.63, -151052.09, -153546.11, 0.01, 0.99, 0.39
163, -147096.56, -146720.33, -152257.58, -153095.11, -151974.38, -151099.95, -151013.31, -153507.91, 0.01, 0.99, 0.38
164, -147102.91, -146727.11, -152255.25, -153103.25, -151983.41, -151107.42, -151013.09, -153511.17, 0.01, 0.99, 0.38
165, -147134.52, -146758.20, -152287.70, -153134.88, -152015.06, -151139.52, -151044.67, -153543.42, 0.01, 0.99, 0.38
166, -147126.95, -146749.23, -152287.73, -153125.00, -152003.48, -151130.17, -151042.42, -153538.70, 0.01, 0.99, 0.38
167, -147087.08, -146709.30, -152247.89, -153084.88, -151963.52, -151089.94, -151003.48, -153498.66, 0.01, 0.99, 0.38
168, -147085.77, -146709.69, -152238.48, -153085.44, -151965.42, -151089.67, -150996.52, -153494.50, 0.01, 0.99, 0.37
169, -147119.09, -146744.36, -152272.03, -153120.83, -152001.14, -151125.53, -151030.11, -153529.56, 0.01, 0.99, 0.37
170, -147119.36, -146743.17, -152281.61, -153120.52, -152000.08, -151126.16, -151037.61, -153533.88, 0.01, 0.99, 0.37
171, -147080.59, -146701.13, -152243.67, -153078.75, -151958.13, -151084.36, -150998.64, -153493.33, 0.01, 0.99, 0.37
172, -147070.70, -146693.73, -152224.84, -153069.19, -151949.61, -151074.63, -150981.94, -153480.19, 0.01, 0.99, 0.37
173, -147100.38, -146724.42, -152251.86, -153100.09, -151981.02, -151105.31, -151008.56, -153509.08, 0.02, 0.99, 0.37
174, -147109.81, -146733.36, -152269.52, -153108.75, -151988.73, -151114.48, -151023.63, -153521.98, 0.02, 0.99, 0.37
175, -147076.13, -146698.58, -152239.73, -153073.59, -151952.88, -151079.08, -150993.61, -153489.30, 0.02, 0.99, 0.37
176, -147060.33, -146682.02, -152215.94, -153058.19, -151938.03, -151063.19, -150972.14, -153469.83, 0.02, 0.99, 0.37
177, -147085.14, -146709.58, -152237.25, -153086.06, -151966.72, -151091.58, -150993.52, -153494.72, 0.02, 0.99, 0.37
178, -147103.31, -146728.05, -152261.47, -153103.97, -151983.50, -151108.25, -151015.80, -153515.17, 0.02, 0.99, 0.37
179, -147075.97, -146698.94, -152239.31, -153074.03, -151952.45, -151078.47, -150992.73, -153488.89, 0.01, 0.98, 0.37
180, -147049.31, -146672.56, -152206.81, -153047.55, -151926.72, -151052.23, -150962.42, -153460.48, 0.01, 0.98, 0.37
181, -147068.38, -146691.77, -152219.98, -153068.86, -151949.30, -151073.41, -150976.89, -153478.11, 0.01, 0.98, 0.37
182, -147090.64, -146714.08, -152248.09, -153092.09, -151972.50, -151096.84, -151003.48, -153503.27, 0.01, 0.98, 0.37
183, -147069.72, -146693.47, -152234.50, -153069.08, -151948.34, -151073.88, -150988.53, -153484.19, 0.01, 0.98, 0.37
184, -147039.50, -146661.92, -152198.45, -153037.11, -151916.69, -151041.95, -150953.97, -153451.05, 0.02, 0.98, 0.37
185, -147052.30, -146676.19, -152202.95, -153051.42, -151932.52, -151056.03, -150960.56, -153461.06, 0.02, 0.98, 0.37
186, -147080.00, -146704.39, -152234.64, -153080.77, -151960.59, -151084.98, -150990.61, -153491.02, 0.02, 0.98, 0.37
187, -147066.58, -146687.66, -152229.50, -153064.16, -151943.94, -151069.42, -150983.23, -153480.13, 0.02, 0.98, 0.37
188, -147031.80, -146652.73, -152192.33, -153028.69, -151909.09, -151034.38, -150948.23, -153445.25, 0.02, 0.98, 0.37
189, -147036.36, -146659.69, -152189.36, -153036.41, -151917.47, -151041.33, -150947.61, -153448.47, 0.02, 0.98, 0.37
190, -147067.75, -146692.53, -152223.16, -153068.81, -151950.78, -151073.95, -150979.23, -153480.39, 0.02, 0.98, 0.37
191, -147063.39, -146686.38, -152225.86, -153062.19, -151942.17, -151068.39, -150979.45, -153477.94, 0.02, 0.98, 0.37
192, -147026.16, -146647.31, -152187.86, -153023.44, -151902.83, -151028.36, -150941.69, -153439.36, 0.02, 0.98, 0.37
193, -147021.33, -146644.88, -152174.73, -153020.59, -151900.97, -151024.56, -150931.67, -153432.14, 0.02, 0.98, 0.37
194, -147053.34, -146679.19, -152206.83, -153055.00, -151936.22, -151059.91, -150964.28, -153466.45, 0.02, 0.98, 0.37
195, -147060.22, -146683.59, -152221.03, -153059.47, -151939.98, -151065.42, -150976.80, -153476.06, 0.02, 0.98, 0.37
196, -147024.39, -146646.81, -152186.52, -153020.81, -151900.91, -151027.31, -150941.48, -153438.84, 0.02, 0.98, 0.37
197, -147010.86, -146634.45, -152166.11, -153008.89, -151890.16, -151014.81, -150922.91, -153422.84, 0.02, 0.98, 0.37
198, -147044.52, -146668.63, -152195.69, -153043.84, -151925.30, -151049.08, -150952.86, -153455.14, 0.02, 0.98, 0.37
199, -147057.84, -146680.50, -152216.27, -153056.11, -151936.63, -151061.63, -150971.17, -153470.77, 0.03, 0.98, 0.37
200, -147023.09, -146646.28, -152186.45, -153020.64, -151900.70, -151026.47, -150941.61, -153438.17, 0.03, 0.98, 0.37
201, -146999.59, -146624.00, -152156.75, -152998.31, -151879.34, -151004.45, -150914.08, -153413.45, 0.03, 0.98, 0.37
202, -147026.17, -146650.03, -152177.08, -153025.69, -151907.33, -151031.58, -150935.36, -153438.23, 0.03, 0.98, 0.37
203, -147047.11, -146669.33, -152204.58, -153046.38, -151927.08, -151051.91, -150960.23, -153461.13, 0.03, 0.98, 0.37
204, -147019.08, -146640.78, -152183.72, -153017.11, -151896.55, -151022.42, -150937.28, -153434.39, 0.03, 0.98, 0.38
205, -146991.23, -146614.75, -152151.14, -152991.66, -151870.69, -150996.20, -150907.11, -153406.09, 0.03, 0.98, 0.38
206, -147012.41, -146637.41, -152167.36, -153015.20, -151896.17, -151020.09, -150924.25, -153426.64, 0.03, 0.98, 0.38
207, -147042.80, -146666.27, -152199.86, -153042.17, -151923.61, -151048.72, -150955.23, -153455.98, 0.03, 0.98, 0.38
208, -147021.70, -146644.30, -152184.89, -153018.88, -151899.41, -151026.13, -150939.73, -153437.17, 0.03, 0.98, 0.38
209, -146988.20, -146611.69, -152147.53, -152985.44, -151866.39, -150991.48, -150904.09, -153402.25, 0.03, 0.98, 0.38
210, -147000.89, -146625.27, -152152.08, -152999.52, -151881.11, -151005.39, -150909.61, -153411.75, 0.03, 0.98, 0.38
211, -147031.38, -146654.91, -152184.63, -153029.45, -151911.14, -151035.36, -150940.86, -153442.31, 0.03, 0.98, 0.38
212, -147019.69, -146642.81, -152182.66, -153017.17, -151897.59, -151023.27, -150936.52, -153434.50, 0.03, 0.98, 0.38
213, -146983.41, -146605.63, -152144.47, -152980.56, -151860.63, -150986.50, -150899.73, -153397.17, 0.03, 0.98, 0.38
214, -146985.20, -146608.11, -152138.34, -152983.63, -151865.06, -150989.03, -150895.23, -153395.84, 0.03, 0.98, 0.38
215, -147016.52, -146641.20, -152170.58, -153016.03, -151897.59, -151021.55, -150926.50, -153428.16, 0.02, 0.98, 0.38
216, -147016.20, -146640.94, -152180.27, -153015.67, -151895.50, -151021.30, -150933.23, -153431.84, 0.02, 0.98, 0.38
217, -146982.88, -146606.16, -152146.20, -152980.63, -151860.61, -150986.77, -150900.73, -153398.08, 0.02, 0.98, 0.38
218, -146977.25, -146599.55, -152131.94, -152975.47, -151856.88, -150981.36, -150889.00, -153388.66, 0.02, 0.98, 0.38
219, -147008.48, -146630.25, -152160.08, -153007.13, -151888.84, -151012.97, -150917.20, -153418.70, 0.02, 0.98, 0.38
220, -147012.88, -146634.19, -152173.27, -153010.30, -151890.88, -151016.41, -150926.70, -153425.66, 0.02, 0.99, 0.38
221, -146973.11, -146594.67, -152136.25, -152970.17, -151849.83, -150977.22, -150890.59, -153388.06, 0.02, 0.99, 0.38
222, -146958.67, -146582.27, -152114.44, -152956.80, -151837.97, -150963.31, -150871.41, -153371.56, 0.02, 0.99, 0.38
223, -146988.44, -146613.33, -152140.81, -152988.09, -151869.84, -150993.56, -150897.63, -153399.61, 0.02, 0.99, 0.38
224, -147003.94, -146627.48, -152163.41, -153002.33, -151883.58, -151008.20, -150917.91, -153417.52, 0.02, 0.99, 0.38
225, -146971.64, -146592.66, -152135.91, -152967.72, -151848.16, -150973.88, -150889.22, -153386.30, 0.02, 0.98, 0.37
226, -146950.22, -146572.23, -152107.84, -152947.84, -151828.22, -150953.13, -150863.58, -153362.63, 0.02, 0.98, 0.37
227, -146974.20, -146598.77, -152127.22, -152974.59, -151856.72, -150979.92, -150884.42, -153385.63, 0.02, 0.98, 0.37
228, -146996.98, -146620.75, -152154.95, -152995.86, -151877.81, -151002.72, -150910.75, -153410.44, 0.02, 0.98, 0.37
229, -146972.73, -146592.25, -152136.06, -152967.94, -151848.78, -150975.20, -150889.61, -153386.30, 0.02, 0.98, 0.37
230, -146942.64, -146563.47, -152101.81, -152938.98, -151820.42, -150945.92, -150857.03, -153354.95, 0.02, 0.99, 0.38
231, -146960.30, -146583.31, -152113.16, -152959.31, -151841.41, -150966.25, -150869.89, -153371.42, 0.02, 0.99, 0.38
232, -146986.11, -146609.00, -152142.94, -152985.53, -151866.94, -150993.45, -150898.31, -153399.50, 0.02, 0.99, 0.38
233, -146969.53, -146590.67, -152134.63, -152966.75, -151846.77, -150974.63, -150887.28, -153384.91, 0.02, 0.99, 0.38
234, -146937.69, -146557.97, -152098.44, -152934.98, -151815.45, -150941.86, -150854.20, -153351.94, 0.02, 0.99, 0.38
235, -146947.53, -146571.47, -152100.52, -152946.59, -151828.63, -150953.47, -150858.33, -153359.72, 0.02, 0.99, 0.38
236, -146976.91, -146602.11, -152133.19, -152977.22, -151858.47, -150983.70, -150888.91, -153390.42, 0.02, 0.99, 0.38
237, -146965.23, -146588.48, -152130.75, -152963.95, -151844.20, -150970.58, -150883.48, -153381.33, 0.02, 0.99, 0.38
238, -146929.72, -146551.86, -152092.59, -152926.45, -151806.77, -150933.66, -150846.59, -153343.89, 0.02, 0.99, 0.38
239, -146929.33, -146552.78, -152082.52, -152926.77, -151808.27, -150933.66, -150839.05, -153339.83, 0.02, 0.99, 0.38
240, -146962.20, -146585.95, -152116.92, -152962.02, -151842.80, -150968.11, -150871.91, -153373.64, 0.02, 0.99, 0.38
241, -146963.08, -146584.66, -152125.30, -152960.56, -151840.56, -150967.61, -150878.42, -153377.02, 0.02, 0.98, 0.37
242, -146923.78, -146545.63, -152086.72, -152919.98, -151800.39, -150927.31, -150841.33, -153338.55, 0.02, 0.98, 0.37
243, -146916.84, -146538.80, -152071.41, -152914.30, -151795.47, -150921.34, -150828.36, -153328.69, 0.02, 0.98, 0.37
244, -146949.61, -146572.66, -152102.63, -152949.45, -151830.30, -150955.72, -150858.64, -153360.88, 0.02, 0.98, 0.37
245, -146956.20, -146580.23, -152119.47, -152956.36, -151835.70, -150963.45, -150871.67, -153371.03, 0.02, 0.98, 0.37
246, -146919.42, -146542.02, -152084.08, -152916.33, -151797.23, -150924.30, -150838.94, -153335.63, 0.02, 0.99, 0.37
247, -146904.83, -146527.39, -152062.84, -152903.16, -151785.11, -150909.92, -150819.08, -153318.41, 0.02, 0.99, 0.37
248, -146934.44, -146557.34, -152088.08, -152932.34, -151815.95, -150940.09, -150843.64, -153346.06, 0.02, 0.99, 0.37
249, -146951.58, -146574.13, -152109.25, -152947.81, -151830.17, -150956.44, -150864.69, -153365.45, 0.02, 0.99, 0.37
250, -146918.48, -146539.75, -152081.22, -152914.02, -151795.61, -150922.64, -150836.86, -153334.23, 0.02, 0.99, 0.37
251, -146894.14, -146514.14, -152051.52, -152890.20, -151772.52, -150898.66, -150808.64, -153307.28, 0.03, 0.99, 0.37
252, -146916.09, -146538.19, -152069.13, -152915.41, -151798.11, -150923.27, -150826.81, -153328.67, 0.03, 0.99, 0.37
253, -146940.44, -146562.89, -152096.64, -152938.05, -151819.80, -150947.00, -150853.23, -153354.63, 0.03, 0.99, 0.37
254, -146916.64, -146539.34, -152080.61, -152912.95, -151793.58, -150922.14, -150835.09, -153333.09, 0.03, 0.99, 0.37
255, -146886.83, -146509.89, -152046.47, -152882.70, -151765.64, -150891.81, -150803.11, -153300.39, 0.03, 0.99, 0.37
0, -146903.11, -146526.77, -152054.73, -152901.28, -151785.45, -150910.55, -150813.45, -153314.31, 0.02, 0.99, 0.37
1, -146934.53, -146557.41, -152089.47, -152932.53, -151816.98, -150941.45, -150846.13, -153346.53, 0.02, 0.99, 0.37
2, -146917.41, -146539.28, -152080.53, -152914.98, -151795.08, -150923.69, -150834.86, -153331.89, 0.02, 0.99, 0.37
3, -146884.97, -146506.72, -152042.08, -152879.91, -151760.94, -150889.20, -150800.20, -153296.50, 0.02, 0.99, 0.37
4, -146893.06, -146516.66, -152043.47, -152890.67, -151773.44, -150899.19, -150803.45, -153302.36, 0.02, 0.99, 0.37
5, -146928.31, -146551.16, -152080.75, -152926.52, -151810.30, -150935.61, -150839.53, -153338.13, 0.02, 0.99, 0.37
6, -146921.41, -146542.91, -152083.41, -152919.70, -151802.22, -150927.28, -150839.33, -153333.08, 0.02, 0.99, 0.37
7, -146883.55, -146504.77, -152043.56, -152881.14, -151760.41, -150890.08, -150801.06, -153294.52, 0.02, 0.99, 0.37
8, -146884.48, -146506.83, -152035.33, -152882.27, -151763.17, -150891.56, -150795.13, -153291.31, 0.02, 0.99, 0.37
9, -146919.08, -146542.03, -152068.95, -152916.70, -151799.31, -150925.55, -150828.50, -153324.58, 0.02, 0.99, 0.37
10, -146918.14, -146539.84, -152077.95, -152916.75, -151796.33, -150925.14, -150834.08, -153326.33, 0.02, 0.99, 0.37
11, -146881.83, -146503.09, -152043.80, -152879.64, -151759.89, -150888.28, -150800.42, -153289.69, 0.02, 0.99, 0.38
12, -146873.67, -146495.72, -152024.47, -152871.44, -151754.14, -150880.23, -150787.56, -153278.13, 0.02, 0.99, 0.38
13, -146906.91, -146528.89, -152054.48, -152905.95, -151787.70, -150915.44, -150817.88, -153310.77, 0.02, 0.99, 0.38
14, -146916.77, -146538.80, -152071.09, -152914.92, -151794.84, -150924.27, -150832.94, -153323.23, 0.02, 0.99, 0.38
15, -146881.16, -146503.41, -152040.41, -152878.39, -151758.48, -150887.81, -150801.27, -153288.06, 0.02, 0.99, 0.38
16, -146864.56, -146487.00, -152017.20, -152862.72, -151744.77, -150871.30, -150779.81, -153267.84, 0.01, 0.99, 0.38
17, -146892.22, -146514.81, -152039.89, -152892.83, -151774.53, -150900.44, -150802.77, -153293.67, 0.01, 0.99, 0.38
18, -146909.50, -146532.27, -152065.78, -152910.45, -151791.41, -150918.34, -150824.97, -153313.78, 0.01, 0.99, 0.38
19, -146878.81, -146501.95, -152039.16, -152877.41, -151756.69, -150887.55, -150799.70, -153286.00, 0.01, 0.99, 0.38
20, -146854.00, -146476.14, -152007.22, -152852.11, -151732.39, -150861.08, -150770.45, -153258.58, 0.01, 0.99, 0.38
21, -146876.61, -146498.88, -152022.56, -152878.19, -151757.86, -150886.11, -150787.97, -153279.81, 0.02, 0.98, 0.37
22, -146902.20, -146524.36, -152055.92, -152903.50, -151784.34, -150912.25, -150817.86, -153307.95, 0.02, 0.98, 0.37
23, -146878.73, -146500.41, -152040.09, -152878.19, -151757.45, -150887.72, -150799.64, -153286.09, 0.02, 0.98, 0.37
24, -146847.80, -146469.69, -152004.02, -152848.00, -151726.77, -150855.77, -150766.17, -153253.45, 0.02, 0.98, 0.37
25, -146863.86, -146487.42, -152008.75, -152864.89, -151745.34, -150873.78, -150776.77, -153267.53, 0.02, 0.98, 0.37
26, -146892.59, -146516.16, -152040.06, -152892.66, -151773.45, -150900.52, -150806.44, -153296.63, 0.01, 0.98, 0.38
27, -146875.47, -146496.70, -152031.06, -152876.36, -151753.50, -150883.23, -150795.02, -153282.56, 0.01, 0.98, 0.38
28, -146838.81, -146461.19, -151993.64, -152837.69, -151718.08, -150846.23, -150758.64, -153245.91, 0.01, 0.98, 0.38
29, -146844.08, -146468.98, -151992.69, -152845.84, -151727.14, -150854.44, -150759.36, -153250.06, 0.01, 0.98, 0.38
30, -146876.48, -146500.97, -152026.64, -152879.48, -151759.63, -150887.81, -150791.36, -153282.80, 0.01, 0.98, 0.38
31, -146873.06, -146493.58, -152027.22, -152874.55, -151750.91, -150881.75, -150792.39, -153281.53, 0.02, 0.98, 0.38
32, -146835.84, -146455.69, -151988.80, -152835.02, -151713.58, -150844.19, -150755.47, -153244.61, 0.02, 0.98, 0.38
33, -146833.09, -146455.42, -151980.59, -152833.33, -151711.95, -150841.91, -150746.94, -153239.39, 0.02, 0.98, 0.38
34, -146865.55, -146489.34, -152012.95, -152868.30, -151745.92, -150874.53, -150777.55, -153270.09, 0.02, 0.98, 0.38
35, -146869.42, -146493.38, -152022.03, -152870.77, -151747.47, -150877.56, -150786.88, -153276.64, 0.02, 0.98, 0.38
36, -146835.89, -146457.66, -151988.97, -152834.11, -151711.66, -150842.52, -150755.11, -153243.75, 0.02, 0.99, 0.37
37, -146822.55, -146444.27, -151972.23, -152822.61, -151704.06, -150832.05, -150738.58, -153229.52, 0.02, 0.99, 0.37
38, -146853.64, -146477.08, -151994.78, -152853.98, -151734.41, -150863.14, -150765.50, -153259.36, 0.02, 0.99, 0.37
39, -146865.58, -146488.98, -152014.03, -152865.83, -151745.41, -150874.92, -150782.98, -153274.09, 0.02, 0.99, 0.37
40, -146833.88, -146455.27, -151987.77, -152833.56, -151711.48, -150840.73, -150754.11, -153242.69, 0.02, 0.99, 0.37
41, -146812.09, -146435.13, -151960.77, -152815.50, -151692.98, -150821.94, -150729.13, -153220.17, 0.02, 0.99, 0.37
42, -146839.20, -146464.14, -151983.83, -152847.75, -151722.92, -150852.66, -150752.72, -153247.22, 0.02, 0.99, 0.38
43, -146862.13, -146484.81, -152010.03, -152863.34, -151744.17, -150871.30, -150778.53, -153270.58, 0.02, 0.99, 0.38
44, -146833.67, -146454.97, -151987.86, -152832.84, -151709.55, -150840.92, -150754.16, -153243.83, 0.02, 0.99, 0.38
45, -146807.17, -146429.42, -151955.00, -152806.17, -151684.45, -150814.84, -150724.22, -153215.59, 0.02, 0.99, 0.38
46, -146832.03, -146454.33, -151968.14, -152831.48, -151710.88, -150839.56, -150742.39, -153236.89, 0.02, 0.99, 0.38
47, -146854.11, -146474.53, -152002.42, -152857.34, -151733.53, -150863.58, -150767.14, -153260.70, 0.02, 1.00, 0.38
48, -146828.94, -146450.88, -151985.36, -152834.67, -151705.78, -150841.44, -150749.08, -153240.58, 0.02, 1.00, 0.38
49, -146799.84, -146422.08, -151944.19, -152799.36, -151675.94, -150808.75, -150716.56, -153208.70, 0.02, 1.00, 0.38
50, -146813.88, -146436.48, -151950.53, -152815.56, -151693.84, -150825.45, -150725.66, -153221.14, 0.02, 1.00, 0.38
51, -146845.23, -146468.39, -151985.64, -152846.72, -151725.16, -150852.86, -150758.75, -153253.05, 0.02, 1.00, 0.38
52, -146832.67, -146455.39, -151984.34, -152834.20, -151709.80, -150841.22, -150753.08, -153243.59, 0.02, 0.99, 0.37
53, -146798.14, -146419.61, -151946.08, -152799.88, -151676.34, -150805.66, -150718.17, -153207.86, 0.02, 0.99, 0.37
54, -146804.48, -146427.70, -151943.27, -152808.80, -151683.52, -150813.50, -150717.77, -153211.30, 0.02, 0.99, 0.37
55, -146838.70, -146462.08, -151977.08, -152840.94, -151718.14, -150848.44, -150751.25, -153246.34, 0.02, 0.99, 0.37
56, -146833.00, -146454.91, -151981.16, -152834.66, -151712.44, -150842.17, -150752.28, -153243.94, 0.02, 0.99, 0.37
57, -146793.47, -146415.86, -151945.98, -152795.67, -151673.28, -150804.33, -150715.08, -153206.11, 0.02, 0.99, 0.37
58, -146792.39, -146414.81, -151932.53, -152794.00, -151668.14, -150800.27, -150704.64, -153199.91, 0.02, 0.99, 0.37
59, -146828.41, -146452.42, -151964.78, -152830.77, -151704.92, -150835.75, -150737.91, -153234.66, 0.02, 0.99, 0.37
60, -146833.66, -146458.02, -151979.47, -152836.06, -151710.88, -150842.69, -150750.80, -153244.77, 0.02, 0.99, 0.37
61, -146793.56, -146417.56, -151942.28, -152798.86, -151670.95, -150808.22, -150715.14, -153207.72, 0.02, 0.99, 0.37
62, -146778.56, -146404.17, -151917.53, -152784.14, -151659.23, -150789.75, -150695.98, -153191.34, 0.02, 0.99, 0.38
63, -146811.17, -146438.09, -151947.83, -152818.95, -151691.58, -150821.50, -150724.88, -153222.39, 0.02, 0.99, 0.38
64, -146826.28, -146449.34, -151968.20, -152828.95, -151704.23, -150835.75, -150742.70, -153238.33, 0.02, 0.99, 0.38
65, -146793.44, -146415.20, -151939.63, -152794.33, -151668.50, -150801.41, -150713.50, -153206.16, 0.02, 0.99, 0.38
66, -146770.83, -146392.77, -151913.77, -152774.73, -151648.75, -150778.56, -150687.03, -153181.13, 0.02, 0.99, 0.38
67, -146798.56, -146420.59, -151931.97, -152804.03, -151677.48, -150807.30, -150709.66, -153206.66, 0.02, 0.99, 0.38
68, -146823.69, -146446.88, -151960.31, -152823.50, -151699.08, -150830.61, -150737.03, -153232.58, 0.02, 0.98, 0.38
69, -146794.70, -146417.88, -151938.14, -152794.75, -151669.25, -150800.94, -150714.03, -153205.80, 0.02, 0.98, 0.38
70, -146764.77, -146388.63, -151904.27, -152768.00, -151640.80, -150772.17, -150681.19, -153174.17, 0.02, 0.98, 0.38
71, -146784.59, -146409.27, -151917.77, -152788.61, -151662.61, -150791.66, -150694.88, -153190.53, 0.02, 0.98, 0.38
72, -146808.69, -146433.36, -151948.05, -152816.06, -151689.97, -150820.92, -150724.27, -153219.06, 0.02, 0.98, 0.38
73, -146788.08, -146411.39, -151933.05, -152793.41, -151665.30, -150799.03, -150709.67, -153201.22, 0.02, 0.99, 0.38
74, -146756.83, -146380.05, -151897.22, -152756.64, -151632.91, -150762.58, -150676.13, -153167.69, 0.02, 0.99, 0.38
75, -146766.22, -146390.59, -151903.25, -152771.67, -151646.88, -150773.64, -150679.67, -153174.23, 0.02, 0.99, 0.38
76, -146799.28, -146422.70, -151930.88, -152805.38, -151677.23, -150805.73, -150710.75, -153205.56, 0.02, 0.99, 0.38
77, -146786.25, -146408.89, -151927.95, -152790.50, -151663.27, -150794.30, -150703.97, -153195.25, 0.02, 0.99, 0.38
78, -146748.89, -146372.05, -151891.55, -152753.20, -151628.91, -150759.30, -150668.55, -153159.63, 0.02, 0.99, 0.38
79, -146754.59, -146378.08, -151882.52, -152756.36, -151631.88, -150758.36, -150665.77, -153159.63, 0.02, 0.99, 0.38
80, -146790.88, -146414.25, -151919.38, -152792.42, -151666.77, -150795.23, -150700.63, -153195.13, 0.02, 0.99, 0.38
81, -146790.30, -146413.39, -151926.80, -152792.94, -151667.20, -150795.64, -150708.17, -153199.09, 0.02, 0.99, 0.38
82, -146748.52, -146372.58, -151891.81, -152756.08, -151624.50, -150756.09, -150668.81, -153159.44, 0.02, 0.99, 0.38
83, -146741.03, -146365.44, -151878.36, -152745.45, -151621.41, -150748.67, -150656.30, -153149.30, 0.02, 0.99, 0.38
84, -146778.94, -146402.56, -151901.59, -152785.34, -151656.16, -150784.33, -150688.45, -153183.34, 0.02, 0.99, 0.38
85, -146784.61, -146407.00, -151926.70, -152791.30, -151660.47, -150789.53, -150699.95, -153191.86, 0.02, 0.99, 0.38
86, -146747.25, -146370.23, -151888.80, -152754.67, -151625.36, -150756.03, -150669.30, -153159.75, 0.02, 0.99, 0.38
87, -146736.27, -146359.53, -151859.63, -152740.89, -151611.41, -150740.14, -150650.31, -153143.23, 0.02, 0.99, 0.38
88, -146758.94, -146384.91, -151891.88, -152775.08, -151639.19, -150773.55, -150672.20, -153168.72, 0.02, 0.98, 0.37
89, -146777.06, -146402.02, -151911.22, -152780.81, -151654.77, -150784.48, -150694.05, -153187.73, 0.02, 0.98, 0.37
90, -146748.09, -146369.81, -151879.06, -152752.00, -151620.13, -150755.52, -150667.16, -153157.33, 0.02, 0.98, 0.37
91, -146723.03, -146345.42, -151868.16, -152733.63, -151597.38, -150725.56, -150637.16, -153128.05, 0.02, 0.98, 0.37
92, -146750.17, -146375.67, -151873.39, -152750.70, -151629.95, -150756.00, -150662.70, -153157.52, 0.02, 0.98, 0.37
93, -146773.39, -146398.27, -151901.67, -152776.09, -151652.63, -150775.83, -150688.22, -153181.27, 0.01, 0.99, 0.37
94, -146743.47, -146369.09, -151893.98, -152757.41, -151624.44, -150749.45, -150668.75, -153158.33, 0.01, 0.99, 0.37
95, -146722.44, -146344.16, -151845.94, -152725.83, -151597.33, -150726.38, -150638.48, -153130.64, 0.01, 0.99, 0.37
96, -146738.28, -146366.84, -151860.25, -152746.39, -151613.05, -150745.88, -150649.67, -153145.78, 0.01, 0.99, 0.37
97, -146765.91, -146390.67, -151896.80, -152774.08, -151643.77, -150773.19, -150680.34, -153175.41, 0.01, 0.99, 0.37
98, -146754.70, -146372.22, -151891.13, -152754.92, -151622.50, -150747.05, -150667.27, -153158.16, 0.01, 0.99, 0.37
99, -146710.47, -146337.77, -151837.67, -152721.97, -151584.92, -150720.42, -150632.02, -153126.31, 0.02, 0.98, 0.37
100, -146717.63, -146343.89, -151831.73, -152739.39, -151596.70, -150735.20, -150632.41, -153131.33, 0.02, 0.98, 0.37
101, -146755.38, -146378.59, -151868.19, -152757.05, -151634.86, -150757.66, -150670.95, -153167.16, 0.02, 0.98, 0.37
102, -146746.16, -146370.11, -151879.41, -152742.45, -151621.28, -150746.73, -150666.22, -153158.16, 0.02, 0.98, 0.37
103, -146705.41, -146331.92, -151836.69, -152712.34, -151583.31, -150712.67, -150627.19, -153120.03, 0.02, 0.98, 0.37
104, -146707.77, -146329.36, -151826.72, -152713.84, -151591.34, -150707.45, -150622.34, -153116.39, 0.02, 0.99, 0.37
105, -146738.66, -146363.70, -151866.42, -152756.98, -151618.30, -150741.33, -150650.22, -153145.30, 0.02, 0.99, 0.37
106, -146733.98, -146360.47, -151858.50, -152760.33, -151611.03, -150754.63, -150654.80, -153150.48, 0.02, 0.99, 0.37
107, -146703.05, -146326.52, -151808.81, -152706.06, -151577.36, -150713.42, -150623.97, -153118.97, 0.02, 0.99, 0.37
108, -146701.11, -146320.77, -151809.59, -152701.34, -151580.08, -150687.44, -150611.41, -153103.72, 0.02, 0.99, 0.37
109, -146724.42, -146355.42, -151837.67, -152741.95, -151609.52, -150732.69, -150643.72, -153141.16, 0.02, 0.99, 0.37
110, -146737.20, -146367.91, -151842.13, -152750.45, -151610.80, -150742.34, -150657.77, -153154.61, 0.02, 0.99, 0.37
111, -146707.39, -146326.27, -151818.23, -152708.91, -151578.28, -150701.14, -150624.13, -153116.48, 0.02, 0.99, 0.37
112, -146685.44, -146312.48, -151787.20, -152697.59, -151564.61, -150692.38, -150603.05, -153098.58, 0.02, 0.99, 0.37
113, -146712.13, -146338.94, -151803.05, -152722.69, -151599.00, -150719.31, -150631.34, -153129.14, 0.02, 0.99, 0.37
114, -146736.45, -146356.95, -151821.97, -152741.28, -151611.94, -150732.02, -150653.08, -153148.83, 0.03, 0.99, 0.37
115, -146710.39, -146331.05, -151794.38, -152714.95, -151576.83, -150706.83, -150626.64, -153121.42, 0.03, 0.99, 0.37
116, -146681.17, -146304.95, -151756.53, -152693.64, -151553.97, -150689.67, -150601.02, -153101.00, 0.03, 0.99, 0.37
117, -146707.64, -146332.64, -151771.72, -152711.78, -151587.09, -150714.97, -150624.28, -153125.69, 0.03, 0.99, 0.37
118, -146729.08, -146354.34, -151816.27, -152739.70, -151611.91, -150731.08, -150648.92, -153146.06, 0.03, 0.99, 0.37
119, -146706.39, -146330.92, -151785.23, -152718.36, -151583.06, -150699.95, -150628.47, -153122.50, 0.02, 0.99, 0.37
120, -146675.58, -146303.70, -151738.28, -152688.72, -151552.02, -150674.31, -150594.97, -153092.19, 0.02, 0.99, 0.37
121, -146695.70, -146321.91, -151747.16, -152710.73, -151566.91, -150696.89, -150606.00, -153109.13, 0.02, 0.99, 0.37
122, -146720.22, -146343.73, -151793.73, -152738.34, -151600.08, -150728.83, -150632.98, -153135.84, 0.02, 0.99, 0.37
123, -146710.34, -146334.47, -151761.88, -152712.25, -151590.84, -150704.55, -150631.06, -153129.47, 0.02, 0.99, 0.37
124, -146675.09, -146301.33, -151721.56, -152682.58, -151552.20, -150671.41, -150594.36, -153095.19, 0.02, 0.99, 0.38
125, -146680.77, -146304.05, -151721.00, -152693.55, -151560.05, -150691.80, -150592.89, -153100.41, 0.02, 0.99, 0.38
126, -146715.11, -146339.77, -151758.08, -152720.09, -151594.23, -150711.42, -150626.88, -153132.47, 0.02, 0.99, 0.38
127, -146705.30, -146326.98, -151755.31, -152716.88, -151583.77, -150707.55, -150623.91, -153128.13, 0.02, 0.99, 0.38
128, -146671.56, -146294.16, -151707.81, -152678.44, -151546.41, -150673.95, -150587.25, -153091.92, 0.02, 0.99, 0.38
129, -146679.52, -146298.47, -151703.66, -152682.77, -151547.34, -150659.88, -150580.36, -153085.80, 0.02, 0.99, 0.38
130, -146709.42, -146330.77, -151750.92, -152715.25, -151582.53, -150695.39, -150612.91, -153119.48, 0.02, 0.99, 0.37
131, -146712.28, -146333.92, -151732.28, -152717.78, -151587.09, -150710.52, -150625.06, -153131.48, 0.02, 0.99, 0.37
132, -146675.73, -146297.42, -151685.08, -152677.67, -151546.31, -150665.66, -150590.11, -153095.67, 0.02, 0.99, 0.37
133, -146663.53, -146285.86, -151671.56, -152665.67, -151539.38, -150655.64, -150571.89, -153079.77, 0.02, 0.99, 0.37
134, -146690.52, -146315.77, -151705.13, -152714.69, -151562.50, -150694.00, -150593.95, -153106.34, 0.02, 0.99, 0.37
135, -146707.56, -146325.44, -151717.64, -152717.31, -151579.52, -150694.63, -150615.39, -153122.98, 0.02, 0.99, 0.36
136, -146675.66, -146294.64, -151679.58, -152669.16, -151557.66, -150654.48, -150594.06, -153095.61, 0.02, 0.99, 0.36
137, -146656.86, -146273.08, -151665.16, -152661.97, -151527.48, -150646.14, -150564.45, -153071.17, 0.02, 0.99, 0.36
138, -146685.13, -146303.86, -151684.67, -152701.33, -151554.91, -150683.25, -150586.95, -153101.75, 0.02, 0.99, 0.36
139, -146707.64, -146329.63, -151706.00, -152706.38, -151588.78, -150683.75, -150620.64, -153127.44, 0.02, 0.99, 0.36
140, -146680.45, -146299.67, -151672.36, -152676.41, -151551.06, -150660.23, -150593.33, -153099.03, 0.02, 0.98, 0.37
141, -146651.52, -146273.08, -151639.55, -152655.61, -151526.06, -150635.36, -150562.17, -153069.91, 0.02, 0.98, 0.37
142, -146676.17, -146297.44, -151661.92, -152689.56, -151550.05, -150655.94, -150580.25, -153090.92, 0.02, 0.98, 0.37
143, -146701.06, -146321.56, -151695.31, -152706.06, -151575.88, -150681.31, -150608.55, -153118.05, 0.02, 0.98, 0.37
144, -146680.02, -146299.53, -151668.86, -152679.23, -151551.50, -150656.91, -150590.98, -153098.17, 0.02, 0.98, 0.37
145, -146646.08, -146267.17, -151630.91, -152655.91, -151519.14, -150630.97, -150555.02, -153065.55, 0.02, 0.98, 0.37
146, -146662.17, -146285.23, -151644.31, -152671.16, -151542.39, -150645.30, -150568.77, -153080.45, 0.02, 0.98, 0.37
147, -146696.58, -146316.53, -151685.09, -152700.83, -151572.88, -150673.13, -150601.78, -153111.83, 0.02, 0.98, 0.37
148, -146684.80, -146303.98, -151672.03, -152688.88, -151557.19, -150662.23, -150596.53, -153104.66, 0.02, 0.98, 0.37
149, -146650.06, -146270.06, -151636.52, -152655.17, -151524.58, -150624.20, -150561.66, -153069.38, 0.02, 0.98, 0.37
150, -146657.55, -146277.13, -151636.58, -152662.13, -151533.22, -150634.03, -150563.61, -153075.22, 0.02, 0.98, 0.38
151, -146690.22, -146309.84, -151667.63, -152694.86, -151565.36, -150665.39, -150594.30, -153106.61, 0.02, 0.98, 0.38
152, -146684.08, -146304.02, -151669.34, -152688.67, -151556.73, -150656.83, -150593.39, -153102.34, 0.02, 0.98, 0.38
153, -146645.16, -146265.20, -151633.00, -152651.50, -151517.86, -150618.75, -150555.69, -153064.19, 0.02, 0.98, 0.38
154, -146641.28, -146261.97, -151626.66, -152649.88, -151516.06, -150616.20, -150545.72, -153057.00, 0.02, 0.98, 0.38
155, -146673.39, -146293.80, -151658.53, -152681.16, -151549.66, -150649.44, -150576.45, -153089.02, 0.02, 0.98, 0.38
156, -146677.86, -146297.69, -151663.20, -152682.48, -151551.91, -150649.91, -150587.34, -153096.95, 0.02, 0.98, 0.38
157, -146642.17, -146259.69, -151630.42, -152647.03, -151515.09, -150612.84, -150553.92, -153061.75, 0.02, 0.98, 0.38
158, -146627.81, -146246.52, -151611.52, -152631.56, -151501.58, -150598.77, -150532.78, -153043.44, 0.02, 0.98, 0.38
159, -146657.70, -146278.61, -151644.75, -152665.81, -151535.25, -150629.94, -150561.23, -153072.81, 0.02, 0.98, 0.38
160, -146672.28, -146292.03, -151660.41, -152682.33, -151545.20, -150643.78, -150579.03, -153088.77, 0.02, 0.98, 0.38
161, -146639.20, -146256.89, -151629.84, -152649.72, -151512.25, -150610.98, -150551.53, -153058.58, 0.02, 0.98, 0.39
162, -146617.69, -146237.38, -151607.27, -152622.44, -151490.48, -150592.73, -150525.16, -153034.59, 0.02, 0.98, 0.39
163, -146642.64, -146265.30, -151629.95, -152650.92, -151520.33, -150614.36, -150547.38, -153058.08, 0.02, 0.98, 0.39
164, -146665.33, -146287.48, -151657.28, -152671.70, -151540.95, -150639.67, -150573.97, -153084.61, 0.02, 0.98, 0.39
165, -146638.84, -146258.56, -151630.52, -152645.38, -151512.08, -150615.30, -150552.67, -153060.25, 0.02, 0.98, 0.39
166, -146615.95, -146233.42, -151604.20, -152620.03, -151488.25, -150582.92, -150524.20, -153031.44, 0.02, 0.98, 0.38
167, -146633.56, -146252.20, -151623.34, -152637.73, -151511.16, -150600.84, -150537.25, -153045.61, 0.02, 0.98, 0.38
168, -146658.50, -146278.23, -151650.34, -152662.34, -151532.81, -150629.39, -150563.67, -153072.42, 0.02, 0.98, 0.38
169, -146639.53, -146257.89, -151629.67, -152640.81, -151512.34, -150611.45, -150551.02, -153057.47, 0.02, 0.98, 0.38
170, -146608.31, -146226.31, -151599.05, -152615.61, -151477.86, -150576.39, -150517.53, -153024.22, 0.02, 0.98, 0.38
171, -146620.08, -146241.25, -151613.69, -152626.22, -151494.80, -150590.64, -150524.59, -153033.61, 0.02, 0.99, 0.38
172, -146649.33, -146271.47, -151640.23, -152658.25, -151522.36, -150621.22, -150553.50, -153062.89, 0.02, 0.99, 0.38
173, -146637.66, -146255.95, -151630.86, -152647.34, -151509.94, -150614.14, -150549.19, -153056.47, 0.02, 0.99, 0.38
174, -146604.73, -146222.06, -151596.19, -152600.92, -151476.92, -150572.97, -150516.31, -153021.47, 0.02, 0.99, 0.38
175, -146609.09, -146227.28, -151594.75, -152607.77, -151483.00, -150578.20, -150513.69, -153021.53, 0.02, 0.99, 0.38
176, -146640.00, -146260.00, -151629.27, -152642.78, -151515.34, -150612.00, -150545.28, -153054.14, 0.02, 0.98, 0.38
177, -146636.33, -146257.09, -151632.08, -152639.95, -151509.70, -150608.83, -150548.22, -153054.61, 0.02, 0.98, 0.38
178, -146598.47, -146217.81, -151593.64, -152600.41, -151470.08, -150568.92, -150510.36, -153015.25, 0.02, 0.98, 0.38
179, -146594.02, -146212.91, -151584.42, -152596.69, -151467.17, -150564.97, -150499.70, -153007.44, 0.02, 0.98, 0.38
180, -146624.95, -146243.14, -151616.86, -152630.27, -151499.27, -150597.64, -150528.94, -153038.02, 0.02, 0.98, 0.38
181, -146628.00, -146245.69, -151626.67, -152633.28, -151501.59, -150603.41, -150538.80, -153045.19, 0.02, 0.99, 0.38
182, -146595.28, -146213.86, -151591.73, -152595.53, -151466.81, -150565.17, -150508.55, -153012.14, 0.02, 0.99, 0.38
183, -146581.30, -146200.09, -151573.97, -152582.77, -151454.47, -150551.22, -150489.28, -152995.25, 0.02, 0.99, 0.38
184, -146611.55, -146231.34, -151604.53, -152615.67, -151487.67, -150584.14, -150517.33, -153025.31, 0.02, 0.99, 0.38
185, -146629.58, -146248.23, -151626.16, -152631.98, -151502.67, -150600.44, -150539.23, -153044.53, 0.02, 0.99, 0.38
186, -146595.88, -146211.97, -151594.48, -152597.83, -151465.58, -150565.86, -150509.47, -153012.66, 0.02, 0.99, 0.38
187, -146571.27, -146189.44, -151570.03, -152575.39, -151444.73, -150544.38, -150482.98, -152988.14, 0.01, 0.99, 0.37
188, -146594.17, -146215.27, -151591.97, -152598.70, -151470.66, -150566.27, -150502.16, -153008.84, 0.01, 0.99, 0.37
189, -146615.23, -146234.06, -151614.89, -152617.73, -151489.66, -150586.42, -150526.34, -153030.41, 0.01, 0.99, 0.37
190, -146588.48, -146205.45, -151589.77, -152587.58, -151458.08, -150557.52, -150503.70, -153004.55, 0.01, 0.99, 0.37
191, -146557.72, -146176.69, -151558.33, -152558.73, -151429.23, -150527.75, -150470.34, -152972.34, 0.01, 0.99, 0.37
192, -146577.77, -146196.88, -151576.78, -152580.47, -151451.77, -150550.02, -150485.27, -152990.58, 0.02, 0.99, 0.37
193, -146608.03, -146226.22, -151610.27, -152610.08, -151480.69, -150579.36, -150517.67, -153021.33, 0.02, 0.99, 0.37
194, -146589.34, -146206.58, -151594.88, -152589.00, -151458.86, -150559.28, -150505.83, -153005.48, 0.02, 0.99, 0.37
195, -146557.48, -146174.92, -151561.94, -152556.13, -151426.92, -150527.75, -150471.92, -152972.52, 0.02, 0.99, 0.37
196, -146568.14, -146187.47, -151570.69, -152568.84, -151440.94, -150540.30, -150477.44, -152980.94, 0.02, 0.99, 0.37
197, -146596.13, -146215.66, -151602.28, -152597.45, -151469.25, -150568.47, -150506.83, -153008.69, 0.02, 0.99, 0.37
198, -146586.63, -146204.34, -151597.39, -152585.45, -151456.59, -150557.56, -150503.25, -153001.03, 0.02, 0.99, 0.37
199, -146549.81, -146167.31, -151560.06, -152548.11, -151419.58, -150520.70, -150466.50, -152964.30, 0.02, 0.99, 0.37
200, -146551.55, -146170.64, -151558.17, -152551.13, -151423.98, -150524.23, -150462.47, -152963.83, 0.02, 0.99, 0.37
201, -146585.44, -146205.42, -151593.61, -152585.25, -151458.59, -150558.81, -150496.03, -152997.48, 0.02, 0.99, 0.37
202, -146582.98, -146201.55, -151597.55, -152581.86, -151454.16, -150555.89, -150500.27, -152998.02, 0.02, 0.99, 0.37
203, -146543.53, -146161.97, -151560.17, -152541.70, -151414.38, -150517.00, -150464.05, -152959.83, 0.02, 0.99, 0.37
204, -146536.89, -146155.89, -151550.16, -152535.70, -151409.80, -150511.70, -150452.11, -152950.33, 0.02, 0.99, 0.37
205, -146568.75, -146187.64, -151581.86, -152567.42, -151442.45, -150544.41, -150481.34, -152981.23, 0.02, 0.99, 0.37
206, -146575.52, -146193.86, -151594.69, -152572.83, -151447.28, -150550.70, -150493.63, -152990.47, 0.02, 0.99, 0.37
207, -146539.78, -146157.42, -151561.75, -152535.55, -151410.20, -150513.98, -150461.28, -152955.63, 0.03, 0.99, 0.38
208, -146523.19, -146140.42, -151542.72, -152520.34, -151396.16, -150499.14, -150440.41, -152937.41, 0.03, 0.99, 0.38
209, -146554.97, -146174.80, -151575.48, -152554.34, -151431.34, -150534.45, -150470.11, -152969.33, 0.03, 0.99, 0.38
210, -146570.36, -146190.70, -151595.72, -152568.47, -151445.30, -150549.64, -150490.42, -152987.27, 0.03, 0.99, 0.38
211, -146537.97, -146155.84, -151567.05, -152533.34, -151409.53, -150514.45, -150461.09, -152954.69, 0.03, 0.99, 0.38
212, -146515.44, -146133.28, -151542.78, -152511.25, -151388.09, -150492.70, -150433.98, -152929.11, 0.03, 0.99, 0.38
213, -146535.66, -146155.55, -151564.30, -152534.77, -151412.55, -150517.41, -150451.47, -152949.78, 0.03, 0.98, 0.38
214, -146557.55, -146176.97, -151587.30, -152555.30, -151431.75, -150537.70, -150475.56, -152972.78, 0.03, 0.98, 0.38
215, -146532.59, -146150.11, -151565.78, -152526.91, -151403.83, -150510.70, -150455.52, -152948.20, 0.03, 0.98, 0.38
216, -146501.84, -146119.36, -151534.03, -152496.16, -151374.39, -150480.25, -150422.55, -152915.47, 0.03, 0.98, 0.38
217, -146518.73, -146137.64, -151548.16, -152515.80, -151394.16, -150499.39, -150434.30, -152929.64, 0.03, 0.98, 0.38
218, -146548.25, -146165.70, -151580.72, -152544.30, -151423.56, -150530.03, -150466.34, -152960.53, 0.02, 0.99, 0.37
219, -146532.05, -146150.31, -151570.13, -152527.19, -151405.28, -150512.33, -150457.44, -152947.28, 0.02, 0.99, 0.37
220, -146498.72, -146118.20, -151536.33, -152494.30, -151372.41, -150480.05, -150423.56, -152913.00, 0.02, 0.99, 0.37
221, -146506.78, -146126.25, -151541.27, -152504.89, -151383.42, -150489.31, -150425.80, -152917.20, 0.02, 0.99, 0.37
222, -146537.94, -146158.08, -151574.73, -152536.14, -151414.53, -150521.92, -150457.20, -152947.42, 0.02, 0.99, 0.37
223, -146530.92, -146148.70, -151574.03, -152525.61, -151405.50, -150512.66, -150456.20, -152942.13, 0.02, 0.99, 0.37
224, -146496.72, -146115.47, -151537.02, -152491.80, -151370.17, -150478.39, -150422.98, -152907.45, 0.02, 0.99, 0.37
225, -146496.30, -146118.25, -151536.44, -152495.16, -151374.70, -150481.19, -150418.42, -152904.95, 0.02, 0.99, 0.37
226, -146532.05, -146151.33, -151571.06, -152530.58, -151409.19, -150516.47, -150451.16, -152938.09, 0.02, 0.99, 0.37
227, -146531.34, -146149.14, -151575.09, -152526.56, -151404.50, -150514.00, -150455.13, -152938.30, 0.02, 0.99, 0.37
228, -146492.02, -146110.20, -151535.23, -152487.03, -151364.64, -150474.52, -150418.05, -152898.73, 0.02, 0.99, 0.37
229, -146484.52, -146103.98, -151525.13, -152483.28, -151360.44, -150469.09, -150405.83, -152889.14, 0.02, 0.99, 0.37
230, -146518.19, -146139.14, -151562.03, -152519.78, -151397.91, -150506.52, -150438.72, -152923.64, 0.02, 0.99, 0.37
231, -146528.22, -146149.36, -151572.03, -152524.88, -151403.61, -150513.92, -150453.86, -152935.77, 0.02, 0.99, 0.37
232, -146491.92, -146112.66, -151539.06, -152489.72, -151367.59, -150479.72, -150422.66, -152902.59, 0.02, 0.99, 0.37
233, -146474.80, -146094.59, -151517.75, -152472.75, -151351.55, -150462.14, -150399.72, -152882.17, 0.02, 0.99, 0.38
234, -146503.08, -146121.75, -151542.41, -152500.58, -151380.11, -150489.06, -150421.63, -152906.02, 0.02, 0.99, 0.38
235, -146521.06, -146140.50, -151566.44, -152518.73, -151399.73, -150506.88, -150444.47, -152926.20, 0.02, 0.99, 0.38
236, -146490.56, -146109.44, -151539.45, -152487.16, -151366.14, -150475.09, -150419.08, -152898.02, 0.02, 0.99, 0.38
237, -146467.58, -146085.61, -151513.64, -152466.94, -151340.50, -150453.08, -150391.34, -152872.56, 0.02, 0.99, 0.38
238, -146488.66, -146107.14, -151532.91, -152487.42, -151366.56, -150476.28, -150408.39, -152892.34, 0.02, 0.99, 0.37
239, -146513.05, -146131.36, -151557.73, -152510.66, -151390.14, -150500.14, -150435.48, -152918.09, 0.02, 0.99, 0.37
240, -146490.64, -146107.88, -151533.77, -152483.73, -151363.34, -150475.77, -150418.05, -152898.36, 0.02, 0.99, 0.37
241, -146459.80, -146078.23, -151501.89, -152452.84, -151334.67, -150444.02, -150385.02, -152865.44, 0.02, 0.99, 0.37
242, -146474.50, -146094.69, -151514.61, -152471.09, -151351.72, -150461.88, -150394.94, -152878.97, 0.02, 0.99, 0.37
243, -146502.73, -146123.92, -151546.67, -152500.19, -151380.63, -150490.95, -150425.31, -152909.11, 0.02, 0.99, 0.37
244, -146488.64, -146107.20, -151535.80, -152483.50, -151361.78, -150474.20, -150415.36, -152896.00, 0.02, 0.99, 0.38
245, -146454.28, -146072.80, -151500.23, -152449.59, -151327.58, -150439.84, -150380.05, -152861.36, 0.02, 0.99, 0.38
246, -146460.58, -146080.20, -151503.92, -152457.91, -151338.45, -150449.39, -150382.38, -152867.08, 0.02, 0.99, 0.38
247, -146493.48, -146112.92, -151536.33, -152489.42, -151370.50, -150481.34, -150414.31, -152898.91, 0.02, 0.99, 0.38
248, -146488.70, -146106.67, -151536.80, -152482.77, -151362.52, -150473.97, -150414.83, -152896.00, 0.02, 0.99, 0.38
249, -146450.45, -146067.86, -151499.00, -152444.56, -151324.77, -150435.95, -150377.64, -152858.08, 0.03, 0.98, 0.38
250, -146448.94, -146069.22, -151494.31, -152445.53, -151327.25, -150436.95, -150371.28, -152855.02, 0.03, 0.98, 0.38
