%OpenBCI Raw EEG Data
%
%Sample Rate = 250.0 Hz
%First Column = SampleIndex
%Other Columns = EEG data in microvolts followed by Accel Data (in G) interleaved with Aux Data
0, 54456.09, 60985.75, -8186.46, -14443.05, -3960.19, 6284.68, 494.73, -28010.58, 0.04, 1.01, 0.30
1, 54397.24, 60912.61, -8240.37, -14514.24, -4038.33, 6212.51, 455.17, -28071.31, 0.04, 1.01, 0.30
2, 54378.35, 60914.52, -8278.33, -14524.30, -4038.11, 6202.59, 410.85, -28090.76, 0.05, 0.99, 0.37
3, 54442.81, 60992.66, -8223.41, -14447.59, -3952.48, 6282.61, 445.09, -28027.23, 0.05, 0.99, 0.37
4, 54462.71, 60998.94, -8186.26, -14437.75, -3951.72, 6291.23, 485.06, -28010.40, 0.05, 0.99, 0.37
5, 54407.88, 60931.84, -8226.45, -14503.35, -4027.14, 6226.17, 470.08, -28060.18, 0.05, 0.99, 0.37
6, 54379.80, 60906.24, -8277.10, -14536.05, -4051.19, 6193.91, 415.36, -28102.89, 0.05, 0.99, 0.37
7, 54455.75, 60982.73, -8236.82, -14465.83, -3972.55, 6260.25, 429.53, -28057.94, 0.05, 0.99, 0.37
8, 54484.52, 61025.38, -8172.29, -14422.87, -3936.57, 6304.94, 492.23, -28008.01, 0.05, 0.99, 0.37
9, 54420.89, 60947.26, -8210.42, -14492.07, -4016.47, 6236.45, 472.94, -28060.58, 0.05, 0.99, 0.37
10, 54381.82, 60910.67, -8271.44, -14539.07, -4058.07, 6187.01, 411.29, -28119.75, 0.05, 0.99, 0.37
11, 54422.25, 60977.01, -8239.12, -14473.67, -3983.26, 6249.03, 420.30, -28073.81, 0.05, 0.99, 0.37
12, 54473.55, 61017.67, -8169.70, -14411.38, -3930.15, 6309.85, 486.66, -28006.44, 0.05, 0.99, 0.37
13, 54426.65, 60960.65, -8199.78, -14473.69, -4004.52, 6248.07, 481.79, -28051.71, 0.05, 0.99, 0.37
14, 54377.57, 60912.14, -8269.23, -14536.75, -4065.78, 6178.31, 409.10, -28129.60, 0.05, 0.99, 0.37
15, 54431.21, 60969.05, -8253.52, -14488.78, -4006.26, 6224.87, 398.71, -28099.94, 0.05, 0.99, 0.37
16, 54492.57, 61040.87, -8183.08, -14418.66, -3939.79, 6298.70, 462.97, -28018.89, 0.05, 0.99, 0.37
17, 54451.73, 60989.82, -8192.72, -14461.82, -3995.04, 6256.28, 470.28, -28045.89, 0.05, 0.99, 0.37
18, 54376.96, 60929.13, -8249.76, -14520.18, -4051.79, 6198.92, 427.52, -28099.32, 0.05, 0.99, 0.36
19, 54390.13, 60967.69, -8255.88, -14495.20, -4011.82, 6222.52, 405.97, -28092.81, 0.05, 0.99, 0.36
20, 54463.80, 61035.91, -8189.90, -14426.37, -3935.05, 6290.59, 459.51, -28036.22, 0.05, 0.99, 0.36
21, 54454.46, 60991.94, -8184.85, -14453.20, -3969.31, 6265.62, 487.51, -28037.47, 0.05, 0.99, 0.36
22, 54394.62, 60918.31, -8249.11, -14523.92, -4044.37, 6200.02, 444.20, -28097.42, 0.05, 0.99, 0.36
23, 54399.54, 60933.31, -8269.34, -14512.92, -4023.34, 6210.12, 413.69, -28101.48, 0.06, 0.99, 0.36
24, 54464.65, 61018.05, -8208.12, -14436.03, -3945.98, 6287.84, 455.31, -28023.74, 0.06, 0.99, 0.36
25, 54467.54, 60997.04, -8187.87, -14444.50, -3964.89, 6279.92, 488.90, -28018.07, 0.06, 0.99, 0.36
26, 54385.23, 60918.87, -8245.60, -14520.47, -4046.83, 6204.89, 450.75, -28087.07, 0.06, 0.99, 0.36
27, 54363.71, 60912.95, -8279.67, -14528.30, -4045.82, 6193.24, 407.00, -28110.45, 0.06, 0.99, 0.36
28, 54428.29, 61000.61, -8223.14, -14450.49, -3960.35, 6264.93, 438.52, -28055.48, 0.06, 0.99, 0.37
29, 54469.28, 61037.11, -8172.96, -14424.00, -3941.28, 6288.26, 494.17, -28025.76, 0.06, 0.99, 0.37
30, 54404.77, 60942.54, -8230.63, -14504.58, -4029.95, 6209.83, 464.31, -28093.28, 0.06, 0.99, 0.37
31, 54375.18, 60906.89, -8284.43, -14537.24, -4052.91, 6178.02, 408.21, -28133.83, 0.06, 0.99, 0.37
32, 54438.75, 60990.31, -8237.27, -14460.35, -3965.91, 6252.43, 428.91, -28076.27, 0.06, 0.99, 0.37
33, 54487.43, 61022.43, -8178.44, -14416.83, -3927.72, 6301.49, 495.40, -28013.26, 0.06, 0.98, 0.37
34, 54419.84, 60948.87, -8221.64, -14488.94, -4011.33, 6235.89, 483.85, -28059.33, 0.06, 0.98, 0.37
35, 54353.94, 60901.37, -8289.50, -14541.51, -4061.83, 6182.69, 420.35, -28116.57, 0.06, 0.98, 0.37
36, 54389.64, 60949.45, -8270.95, -14489.38, -4001.28, 6229.94, 412.59, -28087.98, 0.06, 0.98, 0.37
37, 54442.84, 61016.44, -8205.03, -14429.95, -3947.72, 6285.60, 468.58, -28036.48, 0.06, 0.98, 0.37
38, 54430.03, 60980.74, -8217.44, -14476.02, -4005.19, 6241.30, 477.95, -28067.84, 0.06, 0.98, 0.36
39, 54373.21, 60912.19, -8283.58, -14540.73, -4068.40, 6179.01, 421.20, -28127.75, 0.06, 0.98, 0.36
40, 54396.97, 60949.47, -8281.92, -14505.28, -4021.24, 6211.19, 404.43, -28112.62, 0.06, 0.98, 0.36
41, 54458.75, 61041.76, -8210.82, -14437.64, -3954.14, 6278.67, 458.28, -28049.18, 0.06, 0.98, 0.36
42, 54452.87, 61039.57, -8204.59, -14469.04, -3994.19, 6249.12, 482.60, -28061.92, 0.06, 0.98, 0.36
43, 54391.61, 60961.90, -8268.89, -14538.87, -4064.46, 6178.36, 430.56, -28124.30, 0.05, 0.99, 0.37
44, 54381.21, 60969.88, -8282.51, -14521.24, -4034.40, 6192.91, 392.85, -28128.69, 0.05, 0.99, 0.37
45, 54453.70, 61045.59, -8212.97, -14443.12, -3953.67, 6266.02, 444.64, -28065.95, 0.05, 0.99, 0.37
46, 54462.21, 61031.13, -8193.66, -14454.00, -3974.77, 6255.23, 480.18, -28062.81, 0.05, 0.99, 0.37
47, 54406.18, 60959.15, -8256.49, -14527.78, -4053.62, 6185.35, 433.69, -28125.13, 0.05, 0.99, 0.37
48, 54396.05, 60957.47, -8284.27, -14525.95, -4041.82, 6185.98, 393.37, -28131.01, 0.05, 0.99, 0.37
49, 54451.48, 61028.60, -8231.37, -14456.97, -3966.43, 6248.90, 426.45, -28076.96, 0.05, 0.99, 0.37
50, 54457.68, 61037.36, -8184.52, -14440.66, -3958.76, 6268.95, 483.83, -28037.80, 0.05, 0.99, 0.37
51, 54390.66, 60967.89, -8235.88, -14516.59, -4042.92, 6198.12, 454.43, -28094.26, 0.05, 0.99, 0.37
52, 54359.84, 60937.11, -8288.94, -14545.69, -4062.30, 6171.00, 394.13, -28129.92, 0.05, 0.99, 0.37
53, 54394.60, 61000.39, -8239.23, -14476.75, -3981.74, 6241.48, 414.31, -28070.33, 0.05, 0.99, 0.37
54, 54441.00, 61036.38, -8186.15, -14451.56, -3958.16, 6267.05, 473.45, -28027.12, 0.05, 0.99, 0.37
55, 54398.91, 60980.38, -8234.32, -14521.06, -4037.60, 6202.88, 456.42, -28065.05, 0.05, 0.99, 0.37
56, 54370.28, 60960.45, -8283.91, -14545.49, -4057.31, 6174.85, 402.31, -28095.72, 0.05, 0.99, 0.37
57, 54417.38, 61019.28, -8251.79, -14480.04, -3984.89, 6232.96, 409.39, -28046.57, 0.05, 0.99, 0.37
58, 54449.07, 61045.03, -8206.08, -14447.29, -3959.30, 6269.40, 460.29, -27996.70, 0.05, 0.99, 0.37
59, 54434.50, 61010.22, -8228.50, -14495.37, -4021.06, 6222.37, 459.17, -28024.93, 0.05, 0.99, 0.37
60, 54395.05, 60988.99, -8285.61, -14540.19, -4061.71, 6177.24, 405.64, -28059.69, 0.05, 0.99, 0.37
61, 54420.71, 61031.66, -8271.53, -14498.48, -4006.91, 6215.80, 393.79, -28033.98, 0.05, 0.99, 0.37
62, 54474.33, 61060.11, -8200.09, -14437.71, -3947.94, 6271.14, 453.32, -27968.89, 0.05, 0.99, 0.37
63, 54454.97, 61022.14, -8202.75, -14479.50, -3998.48, 6232.31, 464.78, -27992.27, 0.05, 0.99, 0.37
64, 54378.02, 60949.20, -8273.79, -14551.81, -4067.26, 6160.97, 404.90, -28057.45, 0.05, 0.99, 0.37
65, 54389.53, 60983.78, -8269.70, -14514.08, -4016.65, 6196.91, 393.21, -28033.24, 0.05, 0.99, 0.37
66, 54446.32, 61048.78, -8205.12, -14446.65, -3946.92, 6262.33, 450.86, -27969.56, 0.05, 0.99, 0.37
67, 54431.68, 61018.72, -8204.25, -14479.57, -3991.40, 6232.63, 468.07, -27981.68, 0.05, 0.99, 0.37
68, 54378.15, 60955.06, -8269.45, -14548.97, -4064.24, 6163.34, 416.95, -28046.07, 0.05, 0.99, 0.37
69, 54400.99, 60984.00, -8284.32, -14528.72, -4033.28, 6179.21, 384.34, -28048.35, 0.04, 0.98, 0.37
70, 54484.32, 61062.13, -8231.34, -14464.77, -3966.92, 6237.63, 418.49, -28003.99, 0.04, 0.98, 0.37
71, 54481.46, 61054.48, -8206.87, -14466.52, -3982.99, 6241.14, 461.03, -27983.22, 0.04, 0.98, 0.37
72, 54403.27, 60975.47, -8265.76, -14537.33, -4060.46, 6173.91, 426.99, -28040.55, 0.04, 0.98, 0.37
73, 54391.98, 60969.72, -8296.92, -14537.89, -4053.44, 6169.62, 378.48, -28062.77, 0.04, 0.98, 0.37
74, 54456.71, 61041.11, -8242.70, -14464.15, -3976.98, 6237.90, 410.94, -28006.44, 0.04, 0.98, 0.37
75, 54472.90, 61054.55, -8202.33, -14450.89, -3972.64, 6249.66, 464.16, -27978.77, 0.05, 0.97, 0.37
76, 54413.87, 60993.55, -8252.64, -14520.72, -4051.92, 6181.89, 436.04, -28034.99, 0.05, 0.97, 0.37
77, 54398.31, 60987.20, -8288.45, -14532.03, -4056.93, 6169.04, 394.46, -28060.69, 0.05, 0.97, 0.37
78, 54459.26, 61057.57, -8241.36, -14462.92, -3980.26, 6233.43, 414.92, -28011.03, 0.05, 0.97, 0.37
79, 54489.95, 61071.16, -8196.63, -14438.13, -3962.54, 6259.49, 463.42, -27974.79, 0.05, 0.97, 0.37
80, 54444.85, 61005.55, -8236.26, -14506.17, -4039.83, 6192.53, 443.17, -28036.11, 0.06, 0.98, 0.37
81, 54407.00, 60964.02, -8306.11, -14558.96, -4084.51, 6134.53, 376.22, -28106.31, 0.06, 0.98, 0.37
82, 54441.56, 61025.02, -8272.25, -14489.99, -4004.36, 6205.18, 398.84, -28037.20, 0.06, 0.98, 0.37
83, 54483.11, 61069.43, -8205.10, -14436.68, -3958.99, 6261.26, 461.59, -27972.63, 0.06, 0.98, 0.37
84, 54427.23, 61010.85, -8232.75, -14498.84, -4032.46, 6201.00, 450.12, -28020.08, 0.06, 0.98, 0.37
85, 54371.62, 60960.83, -8293.64, -14550.27, -4078.79, 6148.50, 392.97, -28078.06, 0.06, 0.99, 0.37
86, 54418.98, 61016.46, -8276.56, -14499.40, -4016.52, 6195.37, 386.66, -28053.94, 0.06, 0.99, 0.37
87, 54472.32, 61064.18, -8218.60, -14446.58, -3967.34, 6249.91, 437.78, -28003.52, 0.06, 0.99, 0.37
88, 54437.74, 61031.68, -8228.84, -14491.95, -4020.43, 6209.60, 452.94, -28027.32, 0.06, 0.99, 0.37
89, 54391.92, 60974.51, -8295.76, -14559.23, -4084.51, 6149.59, 401.64, -28081.84, 0.06, 0.99, 0.37
90, 54405.38, 60994.80, -8296.10, -14525.59, -4038.13, 6184.35, 381.30, -28065.14, 0.05, 1.00, 0.37
91, 54457.59, 61046.34, -8234.14, -14460.97, -3972.93, 6245.55, 428.01, -28013.53, 0.05, 1.00, 0.37
92, 54448.51, 61013.06, -8223.72, -14487.39, -4012.72, 6220.78, 454.25, -28021.38, 0.05, 1.00, 0.37
93, 54399.27, 60951.80, -8284.09, -14555.19, -4084.94, 6152.43, 405.19, -28075.62, 0.05, 1.00, 0.37
94, 54403.83, 60976.20, -8291.65, -14532.63, -4052.13, 6166.53, 377.74, -28075.44, 0.05, 1.00, 0.37
95, 54470.93, 61056.20, -8228.44, -14461.67, -3973.40, 6229.83, 418.85, -28025.44, 0.05, 0.99, 0.37
96, 54473.01, 61062.93, -8200.92, -14463.81, -3987.73, 6234.86, 464.38, -28001.24, 0.05, 0.99, 0.37
97, 54403.09, 60979.49, -8269.23, -14547.32, -4079.37, 6156.88, 416.59, -28068.40, 0.05, 0.99, 0.37
98, 54391.74, 60973.68, -8310.47, -14557.80, -4080.58, 6142.46, 363.39, -28098.51, 0.05, 0.99, 0.37
99, 54446.93, 61053.70, -8249.22, -14475.93, -3988.76, 6217.76, 403.27, -28036.87, 0.05, 0.99, 0.37
100, 54470.93, 61057.27, -8208.83, -14458.72, -3980.09, 6237.46, 459.84, -28004.70, 0.05, 0.99, 0.37
101, 54407.18, 60977.90, -8266.68, -14535.76, -4066.59, 6168.99, 432.35, -28054.90, 0.05, 0.99, 0.37
102, 54382.71, 60953.81, -8315.56, -14561.47, -4085.07, 6144.43, 375.76, -28089.35, 0.05, 0.99, 0.37
103, 54429.25, 61029.96, -8268.42, -14487.26, -4001.95, 6213.34, 398.89, -28036.17, 0.05, 0.99, 0.37
104, 54481.37, 61077.93, -8206.82, -14446.63, -3968.37, 6252.34, 464.18, -27988.25, 0.05, 0.99, 0.37
105, 54431.55, 61010.61, -8245.58, -14514.48, -4047.32, 6184.93, 445.98, -28040.42, 0.05, 0.99, 0.37
106, 54384.56, 60972.02, -8305.89, -14557.83, -4085.72, 6143.53, 383.62, -28088.03, 0.04, 0.99, 0.37
107, 54429.78, 61034.86, -8281.25, -14509.01, -4025.75, 6188.10, 373.18, -28071.18, 0.04, 0.99, 0.37
108, 54479.16, 61083.65, -8214.56, -14453.98, -3973.96, 6245.03, 431.48, -28016.68, 0.04, 0.99, 0.37
109, 54419.39, 61005.02, -8232.28, -14501.70, -4031.38, 6206.39, 445.78, -28028.51, 0.04, 0.99, 0.37
110, 54356.51, 60946.19, -8303.96, -14560.35, -4089.85, 6147.56, 389.99, -28083.33, 0.04, 0.99, 0.37
111, 54401.64, 60993.35, -8286.84, -14507.11, -4025.15, 6196.13, 385.93, -28056.09, 0.05, 0.98, 0.38
112, 54464.45, 61064.29, -8215.96, -14437.93, -3956.17, 6262.71, 451.30, -27992.79, 0.05, 0.98, 0.38
113, 54414.94, 61024.62, -8232.57, -14486.03, -4015.69, 6218.28, 461.85, -28017.73, 0.05, 0.98, 0.38
114, 54349.49, 60955.08, -8315.90, -14569.09, -4098.50, 6135.15, 390.46, -28100.59, 0.05, 0.98, 0.38
115, 54363.78, 60973.41, -8313.57, -14532.63, -4050.00, 6172.79, 368.60, -28090.82, 0.05, 0.98, 0.38
116, 54428.53, 61043.53, -8242.90, -14461.40, -3977.02, 6241.43, 421.31, -28032.15, 0.05, 0.98, 0.37
117, 54424.42, 61032.26, -8232.06, -14481.72, -4008.65, 6223.37, 453.38, -28026.52, 0.05, 0.98, 0.37
118, 54357.36, 60965.30, -8296.12, -14555.77, -4084.16, 6154.66, 412.05, -28083.51, 0.05, 0.98, 0.37
119, 54367.73, 60964.52, -8318.67, -14547.57, -4063.82, 6164.12, 381.16, -28091.07, 0.05, 0.98, 0.37
120, 54453.30, 61037.09, -8250.88, -14469.31, -3979.66, 6241.23, 432.37, -28019.25, 0.05, 0.98, 0.37
121, 54447.30, 61030.50, -8224.82, -14477.16, -3997.61, 6230.75, 465.56, -28015.99, 0.05, 0.99, 0.37
122, 54382.62, 60968.02, -8285.72, -14555.72, -4081.70, 6152.27, 426.00, -28086.80, 0.05, 0.99, 0.37
123, 54354.32, 60966.91, -8322.22, -14562.54, -4081.27, 6143.18, 379.35, -28105.78, 0.05, 0.99, 0.37
124, 54419.14, 61037.61, -8265.92, -14486.32, -3998.44, 6216.15, 411.21, -28042.59, 0.05, 0.99, 0.37
125, 54456.83, 61045.99, -8222.78, -14469.65, -3990.26, 6234.55, 457.45, -28017.40, 0.05, 0.99, 0.37
126, 54394.58, 60975.76, -8271.20, -14540.41, -4070.50, 6166.91, 431.59, -28069.54, 0.05, 0.99, 0.37
127, 54352.63, 60947.46, -8323.83, -14575.39, -4095.55, 6131.46, 372.47, -28113.91, 0.05, 0.99, 0.37
128, 54409.04, 61023.75, -8279.22, -14505.86, -4011.91, 6200.96, 392.54, -28054.37, 0.05, 0.99, 0.37
129, 54450.66, 61055.22, -8225.84, -14475.64, -3984.40, 6234.44, 448.69, -28006.31, 0.05, 0.99, 0.37
130, 54407.96, 60986.80, -8263.04, -14541.93, -4059.28, 6170.40, 435.95, -28055.91, 0.05, 0.99, 0.37
131, 54366.84, 60949.23, -8314.71, -14578.41, -4090.17, 6135.69, 388.47, -28096.61, 0.05, 0.99, 0.36
132, 54400.57, 61004.10, -8292.16, -14525.66, -4026.29, 6185.22, 390.02, -28066.46, 0.05, 0.99, 0.36
133, 54450.73, 61048.07, -8237.42, -14479.26, -3986.28, 6231.13, 443.46, -28011.54, 0.05, 0.99, 0.36
134, 54405.44, 60999.34, -8263.24, -14534.42, -4055.43, 6178.89, 439.55, -28051.15, 0.05, 0.99, 0.36
135, 54345.02, 60942.72, -8327.79, -14591.40, -4110.28, 6122.23, 382.21, -28107.79, 0.05, 0.99, 0.36
136, 54367.93, 60992.34, -8311.00, -14541.96, -4048.64, 6166.22, 379.15, -28077.54, 0.05, 0.99, 0.36
137, 54428.64, 61051.08, -8243.61, -14475.12, -3986.50, 6229.01, 437.78, -28017.58, 0.05, 0.99, 0.36
138, 54418.96, 61012.97, -8239.03, -14506.08, -4027.58, 6198.23, 459.06, -28037.16, 0.05, 0.99, 0.36
139, 54373.10, 60935.79, -8303.16, -14580.44, -4102.24, 6124.33, 399.38, -28113.73, 0.05, 0.99, 0.36
140, 54386.00, 60964.09, -8309.01, -14552.91, -4065.47, 6149.97, 371.60, -28099.96, 0.05, 0.99, 0.36
141, 54426.63, 61040.58, -8245.51, -14480.85, -3992.92, 6227.06, 425.76, -28017.93, 0.05, 0.99, 0.36
142, 54433.13, 61034.45, -8225.17, -14488.89, -4010.33, 6221.90, 466.32, -28005.42, 0.05, 0.99, 0.37
143, 54377.28, 60963.55, -8289.84, -14562.54, -4087.87, 6145.48, 423.43, -28075.29, 0.05, 0.99, 0.37
144, 54393.71, 60967.64, -8322.34, -14562.03, -4076.82, 6136.09, 376.65, -28103.23, 0.05, 0.99, 0.37
145, 54448.82, 61061.57, -8253.54, -14474.63, -3988.80, 6220.51, 425.00, -28032.26, 0.05, 0.99, 0.37
146, 54438.32, 61057.63, -8221.46, -14468.64, -3994.41, 6230.30, 475.89, -28007.21, 0.05, 0.99, 0.37
147, 54362.88, 60972.20, -8280.18, -14544.93, -4079.33, 6156.90, 440.44, -28072.07, 0.05, 0.99, 0.37
148, 54351.17, 60955.91, -8323.83, -14562.50, -4089.03, 6140.67, 389.28, -28097.64, 0.05, 0.99, 0.37
149, 54415.95, 61026.56, -8275.04, -14490.12, -4010.39, 6211.97, 413.91, -28039.21, 0.05, 0.99, 0.37
150, 54450.55, 61050.91, -8227.57, -14467.41, -3995.35, 6234.35, 463.75, -28008.66, 0.05, 0.99, 0.37
151, 54397.59, 60984.30, -8274.21, -14539.12, -4075.26, 6163.49, 441.42, -28064.54, 0.05, 0.99, 0.37
152, 54365.63, 60960.13, -8316.35, -14566.32, -4095.38, 6136.02, 393.68, -28097.84, 0.05, 0.99, 0.37
153, 54416.93, 61022.29, -8280.52, -14507.73, -4023.63, 6190.70, 400.81, -28065.72, 0.05, 0.99, 0.37
154, 54445.79, 61064.81, -8224.79, -14469.31, -3988.49, 6229.05, 456.15, -28019.54, 0.05, 0.99, 0.37
155, 54403.45, 61003.83, -8255.95, -14528.57, -4056.93, 6177.19, 457.12, -28050.30, 0.05, 0.99, 0.37
156, 54349.98, 60932.29, -8332.19, -14590.37, -4114.24, 6118.54, 392.47, -28119.14, 0.05, 0.99, 0.37
157, 54376.67, 60984.86, -8319.92, -14540.01, -4052.08, 6163.45, 384.43, -28096.97, 0.05, 0.98, 0.37
158, 54437.49, 61049.18, -8250.54, -14478.70, -3997.21, 6221.81, 442.77, -28035.17, 0.05, 0.98, 0.37
159, 54413.89, 61016.75, -8249.96, -14509.21, -4043.01, 6195.03, 463.15, -28041.49, 0.05, 0.98, 0.37
160, 54355.77, 60945.16, -8317.26, -14570.41, -4103.20, 6135.04, 413.55, -28094.29, 0.05, 0.98, 0.37
161, 54395.94, 60982.02, -8311.18, -14528.95, -4052.24, 6174.22, 399.09, -28074.10, 0.05, 0.98, 0.37
162, 54446.59, 61057.54, -8236.30, -14454.74, -3977.74, 6249.17, 457.16, -28008.79, 0.05, 0.98, 0.37
163, 54407.07, 61024.13, -8237.04, -14490.99, -4022.53, 6216.09, 476.54, -28027.37, 0.04, 0.99, 0.37
164, 54335.95, 60951.51, -8315.81, -14574.61, -4109.50, 6131.28, 410.78, -28108.86, 0.04, 0.99, 0.37
165, 54363.66, 60973.61, -8328.84, -14554.43, -4077.05, 6144.29, 377.16, -28112.26, 0.04, 0.99, 0.37
166, 54424.57, 61043.68, -8260.13, -14481.74, -3998.55, 6211.82, 423.25, -28055.26, 0.04, 0.99, 0.37
167, 54410.78, 61036.15, -8239.12, -14497.43, -4023.45, 6198.09, 451.06, -28062.70, 0.04, 0.99, 0.37
168, 54352.45, 60967.62, -8301.88, -14572.98, -4101.05, 6130.93, 409.84, -28115.72, 0.05, 1.00, 0.37
169, 54348.98, 60955.53, -8332.77, -14572.20, -4089.70, 6134.95, 373.12, -28112.84, 0.05, 1.00, 0.37
170, 54425.73, 61028.51, -8270.39, -14492.36, -4005.30, 6215.22, 418.00, -28041.69, 0.05, 1.00, 0.37
171, 54436.93, 61027.61, -8236.30, -14485.43, -4008.32, 6224.13, 462.08, -28021.91, 0.05, 1.00, 0.37
172, 54374.66, 60953.52, -8295.49, -14565.20, -4094.77, 6144.40, 422.22, -28089.39, 0.05, 1.00, 0.37
173, 54357.96, 60949.43, -8336.62, -14583.08, -4101.72, 6121.43, 372.94, -28126.76, 0.05, 0.99, 0.36
174, 54412.08, 61039.97, -8279.22, -14503.58, -4011.56, 6196.31, 407.43, -28064.76, 0.05, 0.99, 0.36
175, 54449.38, 61065.28, -8227.14, -14475.39, -3993.32, 6226.06, 458.84, -28028.68, 0.05, 0.99, 0.36
176, 54396.45, 60968.36, -8275.42, -14551.70, -4079.82, 6149.55, 433.98, -28092.86, 0.05, 0.99, 0.36
177, 54341.96, 60928.13, -8338.12, -14596.25, -4114.93, 6104.35, 374.68, -28146.48, 0.05, 0.99, 0.36
178, 54387.00, 61003.38, -8300.83, -14529.53, -4038.09, 6168.05, 385.75, -28098.51, 0.04, 0.99, 0.36
179, 54445.07, 61054.82, -8246.34, -14486.48, -4004.61, 6209.54, 437.94, -28051.39, 0.04, 0.99, 0.36
180, 54406.36, 60988.43, -8271.06, -14542.45, -4075.53, 6150.73, 429.06, -28095.40, 0.04, 0.99, 0.36
181, 54339.23, 60924.68, -8335.37, -14594.50, -4128.03, 6095.45, 371.75, -28152.85, 0.04, 0.99, 0.36
182, 54370.08, 60978.75, -8316.15, -14534.85, -4063.03, 6151.33, 370.17, -28116.13, 0.04, 0.99, 0.36
183, 54439.21, 61051.22, -8238.25, -14461.51, -3996.18, 6221.05, 440.40, -28046.59, 0.05, 0.99, 0.36
184, 54419.90, 61016.55, -8245.02, -14499.78, -4046.20, 6183.50, 459.57, -28070.53, 0.05, 0.99, 0.36
185, 54363.84, 60939.37, -8326.96, -14578.72, -4124.79, 6106.76, 390.78, -28152.69, 0.05, 0.99, 0.36
186, 54397.24, 60994.46, -8318.22, -14536.21, -4070.45, 6147.67, 374.75, -28128.87, 0.05, 0.99, 0.36
187, 54447.35, 61071.31, -8244.04, -14460.48, -3995.53, 6223.55, 433.00, -28054.66, 0.05, 0.99, 0.36
188, 54444.09, 61028.39, -8244.58, -14495.53, -4043.45, 6194.52, 449.05, -28066.91, 0.05, 0.99, 0.37
189, 54389.82, 60961.63, -8313.98, -14576.26, -4119.40, 6116.04, 392.70, -28141.47, 0.05, 0.99, 0.37
190, 54369.19, 60975.47, -8325.33, -14560.26, -4087.26, 6127.75, 364.80, -28134.74, 0.05, 0.99, 0.37
191, 54420.21, 61023.23, -8259.95, -14485.18, -4011.22, 6200.55, 414.94, -28069.74, 0.05, 0.99, 0.37
192, 54429.04, 61004.82, -8235.79, -14491.95, -4027.72, 6196.28, 452.49, -28058.68, 0.05, 0.99, 0.37
193, 54360.80, 60937.07, -8289.35, -14560.40, -4101.23, 6130.41, 419.07, -28114.18, 0.05, 0.99, 0.37
194, 54349.11, 60937.07, -8318.13, -14562.12, -4093.25, 6125.45, 379.60, -28132.22, 0.05, 0.99, 0.37
195, 54422.00, 61017.49, -8260.74, -14487.44, -4013.57, 6194.65, 411.65, -28078.46, 0.05, 0.99, 0.37
196, 54438.92, 61022.07, -8229.04, -14483.39, -4019.34, 6199.06, 446.86, -28066.12, 0.05, 0.99, 0.37
197, 54393.84, 60955.80, -8281.21, -14557.71, -4099.62, 6130.17, 419.01, -28123.54, 0.05, 0.99, 0.37
198, 54368.11, 60937.36, -8336.80, -14586.82, -4119.56, 6101.18, 364.36, -28161.45, 0.05, 0.99, 0.37
199, 54417.64, 61005.17, -8297.39, -14519.22, -4043.90, 6163.90, 383.89, -28115.86, 0.05, 0.99, 0.36
200, 54446.70, 61042.79, -8246.61, -14486.63, -4021.53, 6196.10, 428.86, -28082.98, 0.05, 0.99, 0.36
201, 54382.08, 60967.55, -8281.72, -14549.51, -4096.94, 6134.73, 414.58, -28124.30, 0.05, 0.99, 0.36
202, 54329.40, 60932.55, -8336.91, -14586.05, -4128.52, 6095.12, 365.16, -28167.27, 0.05, 0.99, 0.36
203, 54375.29, 60990.53, -8306.67, -14522.00, -4057.18, 6153.35, 373.59, -28124.93, 0.05, 0.99, 0.36
204, 54426.72, 61025.42, -8248.51, -14476.87, -4018.87, 6197.54, 427.21, -28079.96, 0.05, 0.99, 0.37
205, 54388.92, 60973.95, -8278.01, -14536.86, -4089.81, 6141.68, 422.11, -28119.23, 0.05, 0.99, 0.37
206, 54346.14, 60926.20, -8340.08, -14592.60, -4138.94, 6085.17, 363.31, -28181.68, 0.05, 0.99, 0.37
207, 54394.67, 60981.84, -8324.68, -14547.19, -4075.89, 6127.35, 354.25, -28160.18, 0.05, 0.99, 0.37
208, 54450.93, 61036.60, -8267.80, -14496.67, -4026.47, 6183.32, 404.99, -28104.84, 0.05, 0.99, 0.37
209, 54433.94, 60998.11, -8275.60, -14537.60, -4076.53, 6152.34, 420.55, -28115.21, 0.05, 0.99, 0.37
210, 54364.65, 60938.88, -8337.11, -14601.25, -4137.49, 6090.69, 365.25, -28177.55, 0.05, 0.99, 0.37
211, 54367.60, 60971.38, -8339.10, -14570.86, -4094.53, 6123.60, 347.32, -28158.28, 0.05, 0.99, 0.37
212, 54410.98, 61022.94, -8278.26, -14508.72, -4028.61, 6181.53, 393.59, -28106.11, 0.05, 0.99, 0.37
213, 54414.27, 61002.09, -8258.61, -14521.70, -4053.42, 6170.69, 432.77, -28098.51, 0.05, 0.99, 0.37
214, 54362.26, 60929.02, -8321.40, -14593.05, -4129.13, 6105.36, 387.04, -28150.14, 0.05, 0.99, 0.37
215, 54350.70, 60943.10, -8344.00, -14586.79, -4110.66, 6108.62, 345.02, -28167.69, 0.05, 0.99, 0.37
216, 54418.23, 61017.94, -8286.93, -14517.99, -4036.03, 6174.20, 384.90, -28115.77, 0.05, 0.99, 0.37
217, 54432.75, 61025.45, -8260.36, -14517.10, -4045.89, 6172.84, 425.47, -28107.05, 0.05, 0.99, 0.37
218, 54374.06, 60956.09, -8320.86, -14592.18, -4128.84, 6096.93, 385.43, -28172.12, 0.05, 0.99, 0.37
219, 54344.82, 60928.77, -8362.84, -14604.99, -4134.20, 6084.10, 336.53, -28192.90, 0.05, 0.99, 0.37
220, 54407.03, 60997.26, -8303.63, -14521.53, -4046.54, 6161.88, 375.49, -28127.39, 0.05, 0.99, 0.38
221, 54421.76, 61002.89, -8262.93, -14502.86, -4040.61, 6178.87, 422.69, -28103.38, 0.05, 0.99, 0.38
222, 54361.65, 60937.09, -8310.15, -14571.93, -4121.35, 6110.56, 394.35, -28157.74, 0.05, 0.99, 0.38
223, 54328.68, 60919.36, -8359.60, -14598.19, -4141.17, 6079.29, 336.97, -28198.83, 0.05, 0.99, 0.38
224, 54387.80, 60988.14, -8319.54, -14532.03, -4063.93, 6143.11, 356.26, -28145.54, 0.05, 0.99, 0.38
225, 54441.61, 61029.58, -8260.00, -14493.63, -4029.89, 6183.27, 421.38, -28097.46, 0.05, 0.99, 0.37
226, 54399.65, 60974.46, -8299.90, -14561.11, -4107.74, 6118.19, 408.72, -28148.15, 0.05, 0.99, 0.37
227, 54358.61, 60937.31, -8351.42, -14594.97, -4139.74, 6085.02, 358.34, -28189.91, 0.05, 0.99, 0.37
228, 54376.43, 60985.14, -8322.40, -14534.96, -4068.29, 6143.40, 370.01, -28144.58, 0.05, 0.99, 0.37
229, 54432.66, 61037.92, -8257.99, -14482.25, -4020.43, 6201.67, 431.12, -28085.23, 0.05, 0.99, 0.37
230, 54401.86, 60993.10, -8275.24, -14533.98, -4083.53, 6155.13, 430.49, -28119.03, 0.05, 0.99, 0.36
231, 54345.36, 60935.57, -8339.82, -14594.42, -4139.12, 6088.68, 366.26, -28186.46, 0.05, 0.99, 0.36
232, 54364.89, 60967.31, -8329.51, -14554.58, -4087.53, 6121.11, 348.33, -28176.99, 0.05, 0.99, 0.36
233, 54425.07, 61024.80, -8263.57, -14496.94, -4029.55, 6177.28, 404.14, -28117.24, 0.05, 0.99, 0.36
234, 54404.08, 60984.09, -8267.91, -14537.06, -4077.90, 6143.69, 419.88, -28128.42, 0.05, 0.99, 0.36
235, 54348.15, 60922.96, -8331.81, -14604.23, -4141.76, 6072.48, 362.84, -28199.63, 0.05, 1.00, 0.37
236, 54364.67, 60972.07, -8333.31, -14573.99, -4099.47, 6098.65, 339.39, -28192.46, 0.05, 1.00, 0.37
237, 54423.12, 61032.46, -8266.39, -14500.85, -4025.95, 6176.97, 398.44, -28111.61, 0.05, 1.00, 0.37
238, 54408.12, 60987.94, -8250.16, -14514.57, -4054.36, 6168.84, 433.51, -28100.43, 0.05, 1.00, 0.37
239, 54346.05, 60921.02, -8314.76, -14583.78, -4129.17, 6100.33, 392.07, -28161.68, 0.05, 1.00, 0.37
240, 54359.87, 60941.65, -8331.46, -14567.41, -4104.00, 6114.68, 364.58, -28161.77, 0.05, 0.99, 0.37
241, 54417.04, 61013.98, -8276.25, -14497.81, -4029.53, 6181.62, 401.82, -28105.22, 0.05, 0.99, 0.37
242, 54416.41, 61008.21, -8249.29, -14497.50, -4039.68, 6180.95, 439.46, -28093.55, 0.05, 0.99, 0.37
243, 54358.01, 60941.94, -8299.34, -14566.88, -4114.71, 6113.27, 408.63, -28152.00, 0.05, 0.99, 0.37
244, 54335.26, 60933.63, -8343.46, -14583.44, -4124.95, 6091.36, 353.11, -28185.75, 0.05, 0.99, 0.37
245, 54401.53, 60995.54, -8297.73, -14512.56, -4045.64, 6158.51, 380.11, -28132.98, 0.05, 0.99, 0.37
246, 54443.53, 61009.35, -8250.72, -14487.71, -4031.29, 6186.87, 437.45, -28094.96, 0.05, 0.99, 0.37
247, 54371.87, 60929.80, -8303.56, -14564.44, -4118.17, 6114.16, 414.36, -28149.92, 0.05, 0.99, 0.37
248, 54326.38, 60909.98, -8349.81, -14590.35, -4134.80, 6086.69, 363.28, -28187.81, 0.05, 0.99, 0.37
249, 54372.67, 60969.93, -8317.84, -14531.74, -4066.43, 6146.64, 371.53, -28143.57, 0.05, 0.99, 0.37
250, 54427.86, 61019.88, -8255.53, -14487.86, -4026.76, 6193.09, 429.51, -28090.58, 0.05, 0.99, 0.37
251, 54368.71, 60965.52, -8284.99, -14551.66, -4099.65, 6133.61, 423.52, -28134.86, 0.06, 0.99, 0.37
252, 54307.16, 60920.97, -8347.53, -14602.60, -4145.11, 6082.76, 362.72, -28194.80, 0.06, 0.99, 0.37
253, 54347.57, 60957.41, -8329.20, -14552.53, -4083.95, 6128.60, 360.06, -28170.57, 0.06, 0.99, 0.37
254, 54404.95, 61000.68, -8271.64, -14502.55, -4036.17, 6178.54, 412.77, -28127.35, 0.06, 0.99, 0.37
255, 54391.45, 60957.79, -8285.50, -14547.34, -4088.83, 6137.16, 425.67, -28144.24, 0.06, 0.99, 0.37
0, 54329.36, 60892.39, -8348.73, -14606.78, -4144.88, 6086.85, 376.63, -28188.61, 0.06, 0.99, 0.37
1, 54339.46, 60931.48, -8342.92, -14567.44, -4093.81, 6123.04, 363.95, -28169.50, 0.06, 0.99, 0.37
2, 54405.73, 60994.06, -8273.32, -14499.53, -4028.95, 6185.78, 416.73, -28111.90, 0.06, 0.99, 0.37
3, 54388.48, 60971.00, -8267.51, -14526.89, -4069.58, 6155.63, 435.59, -28126.81, 0.06, 0.99, 0.37
4, 54327.50, 60909.84, -8334.18, -14596.11, -4143.41, 6084.68, 380.36, -28194.87, 0.06, 0.99, 0.37
5, 54342.34, 60939.44, -8347.55, -14574.43, -4110.98, 6103.17, 350.59, -28195.58, 0.06, 0.99, 0.36
6, 54386.53, 61010.78, -8284.03, -14502.95, -4037.48, 6175.45, 402.80, -28122.90, 0.06, 0.99, 0.36
7, 54404.86, 60987.38, -8259.35, -14509.21, -4054.23, 6168.90, 442.77, -28108.97, 0.06, 0.99, 0.36
8, 54360.36, 60914.09, -8318.25, -14579.89, -4127.92, 6095.50, 400.86, -28169.19, 0.06, 0.99, 0.36
9, 54344.58, 60927.07, -8333.71, -14566.72, -4107.65, 6105.33, 365.09, -28176.85, 0.06, 0.99, 0.36
10, 54393.26, 60994.00, -8279.73, -14494.88, -4035.88, 6171.99, 391.85, -28123.21, 0.06, 0.99, 0.37
11, 54409.87, 61003.23, -8243.37, -14486.34, -4040.08, 6178.09, 435.95, -28095.78, 0.06, 0.99, 0.37
12, 54333.45, 60915.48, -8305.42, -14565.67, -4128.30, 6099.63, 398.55, -28150.10, 0.06, 0.99, 0.37
13, 54294.06, 60884.32, -8354.81, -14586.97, -4141.15, 6078.40, 344.13, -28176.99, 0.06, 0.99, 0.37
14, 54370.30, 60964.52, -8299.63, -14507.31, -4049.82, 6157.70, 376.65, -28099.90, 0.06, 0.99, 0.37
15, 54417.73, 60994.29, -8250.30, -14489.09, -4036.12, 6179.14, 427.59, -28062.37, 0.05, 0.99, 0.36
16, 54368.49, 60931.08, -8295.20, -14564.82, -4115.00, 6106.52, 402.58, -28109.31, 0.05, 0.99, 0.36
17, 54322.76, 60889.97, -8350.21, -14604.74, -4143.63, 6065.95, 343.37, -28156.25, 0.05, 0.99, 0.36
18, 54365.66, 60954.81, -8309.37, -14535.81, -4059.66, 6131.26, 362.70, -28098.18, 0.05, 0.99, 0.36
19, 54411.43, 61000.03, -8246.54, -14488.62, -4017.82, 6182.00, 425.67, -28025.26, 0.05, 0.99, 0.36
20, 54383.91, 60950.59, -8268.83, -14543.39, -4080.87, 6132.69, 424.37, -28051.37, 0.04, 0.99, 0.37
21, 54319.50, 60895.96, -8338.00, -14604.16, -4133.55, 6071.61, 362.63, -28116.95, 0.04, 0.99, 0.37
22, 54346.12, 60945.40, -8325.80, -14560.42, -4077.18, 6115.30, 351.50, -28085.86, 0.04, 0.99, 0.37
23, 54397.39, 60997.98, -8258.75, -14502.64, -4022.62, 6171.12, 407.32, -28026.99, 0.04, 0.99, 0.37
24, 54354.32, 60943.68, -8277.30, -14554.72, -4082.79, 6121.72, 411.63, -28056.80, 0.04, 0.99, 0.37
25, 54313.46, 60897.28, -8337.85, -14608.79, -4133.04, 6068.32, 361.41, -28104.17, 0.04, 0.99, 0.37
26, 54351.75, 60935.46, -8331.84, -14565.87, -4080.29, 6109.87, 349.89, -28079.24, 0.04, 0.99, 0.38
27, 54434.12, 60997.55, -8258.79, -14495.75, -4011.09, 6176.26, 408.46, -28019.72, 0.04, 0.99, 0.38
28, 54389.73, 60962.50, -8267.33, -14539.79, -4063.82, 6135.53, 418.25, -28049.22, 0.04, 0.99, 0.38
29, 54301.39, 60904.93, -8338.76, -14613.48, -4137.20, 6063.58, 368.69, -28116.39, 0.04, 0.99, 0.38
30, 54307.11, 60914.25, -8354.54, -14593.97, -4107.83, 6084.21, 340.84, -28114.76, 0.04, 0.99, 0.38
31, 54381.23, 60984.36, -8289.52, -14520.01, -4032.72, 6153.59, 385.23, -28055.84, 0.04, 0.98, 0.37
32, 54391.89, 60973.50, -8271.42, -14532.17, -4059.88, 6139.60, 414.27, -28050.57, 0.04, 0.98, 0.37
33, 54329.18, 60899.74, -8329.40, -14601.88, -4135.68, 6068.63, 374.64, -28110.71, 0.04, 0.98, 0.37
34, 54313.24, 60903.29, -8358.26, -14596.83, -4124.32, 6071.05, 340.60, -28117.24, 0.04, 0.98, 0.37
35, 54386.89, 60982.69, -8299.90, -14516.83, -4042.18, 6144.72, 375.17, -28057.74, 0.04, 0.98, 0.37
36, 54394.60, 60998.60, -8269.90, -14513.93, -4048.77, 6145.28, 413.35, -28053.99, 0.04, 0.98, 0.38
37, 54340.64, 60918.87, -8320.15, -14582.32, -4125.46, 6082.13, 387.85, -28103.09, 0.04, 0.98, 0.38
38, 54315.81, 60904.01, -8367.55, -14603.00, -4139.52, 6063.76, 338.14, -28129.02, 0.04, 0.98, 0.38
39, 54371.71, 60967.27, -8324.33, -14538.71, -4063.84, 6125.99, 357.31, -28080.99, 0.04, 0.98, 0.38
40, 54398.67, 60984.36, -8275.13, -14509.70, -4040.35, 6156.65, 413.66, -28037.07, 0.04, 0.98, 0.38
41, 54337.85, 60919.14, -8317.51, -14579.75, -4117.35, 6087.81, 396.90, -28091.69, 0.05, 0.99, 0.38
42, 54297.77, 60884.79, -8376.92, -14621.71, -4151.48, 6048.92, 339.75, -28139.44, 0.05, 0.99, 0.38
43, 54356.98, 60943.39, -8351.44, -14563.59, -4085.99, 6107.30, 345.80, -28098.20, 0.05, 0.99, 0.38
44, 54406.58, 61001.80, -8282.86, -14508.83, -4037.57, 6159.36, 406.44, -28045.07, 0.05, 0.99, 0.38
45, 54359.73, 60945.14, -8305.30, -14563.19, -4103.94, 6106.14, 405.68, -28081.52, 0.05, 0.99, 0.38
46, 54287.63, 60888.34, -8367.13, -14614.58, -4156.35, 6051.35, 343.79, -28140.78, 0.06, 0.99, 0.38
47, 54333.20, 60939.44, -8344.44, -14557.53, -4091.64, 6102.63, 344.75, -28105.60, 0.06, 0.99, 0.38
48, 54392.16, 60996.19, -8285.66, -14503.76, -4041.91, 6158.78, 398.42, -28047.35, 0.06, 0.99, 0.38
49, 54359.51, 60955.57, -8299.31, -14552.13, -4100.52, 6109.49, 401.97, -28077.95, 0.06, 0.99, 0.38
50, 54316.61, 60883.94, -8363.89, -14614.75, -4162.43, 6044.76, 346.12, -28140.62, 0.06, 0.99, 0.38
51, 54337.67, 60910.98, -8368.94, -14585.41, -4121.04, 6071.47, 323.50, -28130.74, 0.06, 0.99, 0.38
52, 54379.47, 60974.11, -8303.87, -14518.02, -4051.88, 6138.62, 375.04, -28067.96, 0.05, 0.99, 0.37
53, 54372.88, 60964.49, -8294.46, -14540.73, -4085.36, 6119.64, 404.75, -28071.33, 0.05, 0.99, 0.37
54, 54313.69, 60897.06, -8354.23, -14602.89, -4152.13, 6056.00, 360.31, -28135.68, 0.05, 0.99, 0.37
55, 54318.05, 60915.72, -8363.20, -14582.43, -4121.01, 6070.11, 334.85, -28137.72, 0.05, 0.99, 0.37
56, 54372.07, 60980.30, -8302.17, -14512.03, -4047.34, 6140.11, 381.39, -28075.06, 0.05, 0.99, 0.37
57, 54366.66, 60953.00, -8285.70, -14527.27, -4075.44, 6126.95, 409.17, -28076.40, 0.05, 0.99, 0.37
58, 54311.72, 60871.02, -8354.50, -14610.35, -4163.15, 6045.21, 358.92, -28154.05, 0.05, 0.99, 0.37
59, 54305.24, 60883.76, -8378.46, -14607.51, -4147.12, 6046.42, 321.66, -28171.62, 0.05, 0.99, 0.37
60, 54354.61, 60955.20, -8327.95, -14539.94, -4070.16, 6117.83, 354.25, -28106.51, 0.05, 0.99, 0.37
61, 54377.41, 60975.63, -8288.47, -14527.45, -4064.71, 6133.56, 403.29, -28076.09, 0.05, 0.99, 0.37
62, 54325.60, 60915.30, -8334.56, -14596.58, -4141.53, 6067.81, 378.39, -28131.03, 0.05, 0.98, 0.37
63, 54310.45, 60890.89, -8381.26, -14620.41, -4157.63, 6041.99, 325.35, -28172.96, 0.05, 0.98, 0.37
64, 54347.62, 60961.81, -8337.33, -14552.17, -4081.45, 6108.20, 346.97, -28120.26, 0.05, 0.98, 0.37
65, 54392.50, 60994.02, -8278.39, -14510.33, -4047.03, 6149.34, 413.19, -28066.06, 0.05, 0.98, 0.37
66, 54356.56, 60910.07, -8317.82, -14578.83, -4127.70, 6085.98, 397.64, -28106.69, 0.05, 0.98, 0.37
67, 54301.13, 60875.93, -8371.22, -14617.30, -4159.82, 6044.38, 342.74, -28153.38, 0.05, 0.99, 0.37
68, 54330.96, 60931.39, -8345.63, -14561.92, -4093.50, 6092.06, 341.96, -28130.16, 0.05, 0.99, 0.37
69, 54389.05, 60971.29, -8285.66, -14516.45, -4054.61, 6137.68, 394.33, -28086.08, 0.05, 0.99, 0.37
70, 54363.64, 60929.60, -8303.76, -14565.65, -4116.48, 6094.14, 398.15, -28120.04, 0.05, 0.99, 0.37
71, 54294.11, 60879.51, -8367.11, -14618.35, -4168.15, 6039.84, 342.18, -28178.89, 0.05, 0.99, 0.37
72, 54323.95, 60938.52, -8342.68, -14562.85, -4100.25, 6091.61, 345.71, -28136.76, 0.05, 0.99, 0.37
73, 54381.86, 61004.93, -8282.86, -14509.48, -4050.78, 6147.31, 398.22, -28078.17, 0.05, 0.99, 0.37
74, 54369.48, 60957.41, -8292.83, -14551.81, -4103.67, 6107.59, 407.20, -28107.52, 0.05, 0.99, 0.37
75, 54331.41, 60882.13, -8357.25, -14611.98, -4164.42, 6048.20, 355.75, -28163.94, 0.05, 0.99, 0.37
76, 54358.57, 60929.63, -8358.93, -14577.63, -4123.11, 6077.13, 332.62, -28156.07, 0.05, 0.99, 0.37
77, 54405.75, 60992.23, -8303.45, -14520.63, -4065.80, 6129.83, 369.27, -28112.57, 0.04, 0.99, 0.37
78, 54377.23, 60946.16, -8298.87, -14549.78, -4100.36, 6100.08, 398.29, -28121.33, 0.04, 0.99, 0.37
79, 54310.76, 60873.10, -8352.04, -14611.87, -4163.10, 6041.81, 359.97, -28168.49, 0.04, 0.99, 0.37
80, 54320.13, 60891.71, -8369.10, -14602.17, -4141.98, 6053.43, 323.01, -28172.38, 0.04, 0.99, 0.37
81, 54398.98, 60973.68, -8299.22, -14523.09, -4059.84, 6129.50, 368.16, -28103.41, 0.04, 0.99, 0.37
82, 54409.80, 60974.77, -8266.86, -14524.65, -4069.05, 6127.26, 408.57, -28091.49, 0.04, 0.99, 0.37
83, 54342.97, 60898.87, -8330.14, -14606.71, -4155.28, 6049.68, 367.57, -28159.78, 0.06, 0.99, 0.36
84, 54325.38, 60896.21, -8364.85, -14617.37, -4151.66, 6039.87, 323.97, -28178.11, 0.06, 0.99, 0.36
85, 54392.54, 60974.51, -8305.57, -14538.40, -4063.57, 6119.44, 358.99, -28111.41, 0.06, 0.99, 0.36
86, 54414.71, 60983.60, -8269.18, -14526.67, -4059.86, 6133.45, 401.68, -28089.15, 0.06, 0.99, 0.36
87, 54355.55, 60916.64, -8322.54, -14603.15, -4144.17, 6056.12, 373.16, -28152.58, 0.06, 0.99, 0.36
88, 54323.77, 60893.77, -8367.42, -14628.34, -4162.30, 6025.52, 317.08, -28194.29, 0.05, 0.99, 0.36
89, 54390.40, 60976.25, -8318.54, -14553.80, -4076.15, 6097.89, 341.40, -28135.26, 0.05, 0.99, 0.36
90, 54442.77, 61025.25, -8260.33, -14517.39, -4047.05, 6133.72, 404.86, -28087.34, 0.05, 0.99, 0.36
91, 54391.27, 60945.85, -8297.97, -14581.63, -4124.61, 6073.28, 396.14, -28127.23, 0.05, 0.99, 0.36
92, 54318.00, 60889.05, -8362.84, -14630.20, -4169.14, 6023.39, 333.62, -28179.04, 0.05, 0.99, 0.36
93, 54352.02, 60943.10, -8338.41, -14574.10, -4104.65, 6079.23, 330.76, -28139.10, 0.05, 0.99, 0.36
94, 54401.28, 60988.21, -8273.01, -14520.25, -4055.10, 6134.19, 387.33, -28079.22, 0.05, 0.99, 0.36
95, 54377.79, 60940.64, -8287.83, -14565.78, -4110.58, 6091.14, 397.37, -28109.11, 0.05, 0.99, 0.36
96, 54330.27, 60882.77, -8365.05, -14634.16, -4176.36, 6023.77, 330.60, -28183.45, 0.05, 0.99, 0.36
97, 54370.41, 60930.47, -8354.88, -14589.85, -4121.42, 6064.34, 319.74, -28161.19, 0.05, 0.99, 0.36
98, 54417.20, 60999.36, -8290.33, -14528.30, -4060.40, 6123.84, 376.83, -28100.30, 0.05, 0.98, 0.37
99, 54411.14, 60969.54, -8283.80, -14558.72, -4097.37, 6097.76, 403.78, -28107.07, 0.05, 0.98, 0.37
100, 54344.00, 60892.88, -8361.81, -14641.29, -4177.59, 6019.17, 337.76, -28182.96, 0.05, 0.98, 0.37
101, 54333.65, 60914.49, -8368.87, -14615.25, -4139.68, 6039.75, 312.12, -28179.11, 0.05, 0.98, 0.37
102, 54396.01, 60970.82, -8304.03, -14544.19, -4065.85, 6109.33, 363.28, -28117.15, 0.05, 0.98, 0.37
103, 54408.70, 60950.79, -8291.18, -14562.79, -4096.67, 6091.81, 390.22, -28123.90, 0.05, 0.99, 0.37
104, 54344.02, 60880.79, -8350.99, -14631.65, -4170.23, 6022.92, 345.87, -28187.56, 0.05, 0.99, 0.37
105, 54345.89, 60909.69, -8358.84, -14608.23, -4137.29, 6045.30, 319.92, -28178.04, 0.05, 0.99, 0.37
106, 54410.36, 60972.94, -8303.87, -14542.69, -4065.78, 6104.57, 349.49, -28129.56, 0.05, 0.99, 0.37
107, 54391.11, 60964.92, -8284.09, -14549.76, -4084.31, 6099.59, 381.23, -28127.35, 0.05, 0.99, 0.37
108, 54327.84, 60905.46, -8336.69, -14624.43, -4164.71, 6033.50, 350.94, -28174.62, 0.05, 0.99, 0.37
109, 54312.68, 60916.77, -8376.14, -14640.71, -4170.05, 6015.17, 302.06, -28205.26, 0.06, 0.98, 0.37
110, 54396.72, 60979.38, -8323.19, -14563.05, -4084.92, 6088.10, 330.83, -28149.65, 0.06, 0.98, 0.37
111, 54440.02, 60975.58, -8285.14, -14547.88, -4079.24, 6101.29, 375.26, -28127.68, 0.06, 0.98, 0.37
112, 54392.84, 60910.34, -8326.67, -14608.83, -4153.83, 6044.49, 359.55, -28168.92, 0.06, 0.98, 0.37
113, 54350.23, 60888.21, -8379.38, -14635.23, -4177.14, 6015.50, 314.80, -28200.59, 0.06, 0.98, 0.37
114, 54381.50, 60960.60, -8339.30, -14564.13, -4099.11, 6084.88, 336.97, -28149.09, 0.06, 0.99, 0.36
115, 54407.18, 60996.28, -8290.55, -14532.08, -4071.62, 6122.43, 388.47, -28105.44, 0.06, 0.99, 0.36
116, 54354.34, 60930.59, -8333.58, -14604.03, -4152.73, 6052.79, 368.27, -28160.45, 0.06, 0.99, 0.36
117, 54323.57, 60887.09, -8392.90, -14650.56, -4191.35, 6005.27, 309.21, -28212.30, 0.06, 0.99, 0.36
118, 54354.21, 60935.08, -8367.06, -14592.56, -4118.15, 6063.72, 319.85, -28169.39, 0.06, 0.99, 0.36
119, 54415.52, 60975.98, -8304.59, -14539.72, -4068.22, 6119.75, 377.70, -28111.74, 0.05, 0.99, 0.37
120, 54386.93, 60922.63, -8322.05, -14592.98, -4130.69, 6068.10, 380.90, -28142.50, 0.05, 0.99, 0.37
121, 54323.88, 60872.52, -8385.19, -14653.60, -4186.24, 6008.93, 328.17, -28203.18, 0.05, 0.99, 0.37
122, 54356.89, 60919.07, -8380.94, -14617.03, -4138.02, 6045.74, 310.24, -28185.46, 0.05, 0.99, 0.37
123, 54412.84, 60994.94, -8314.09, -14548.73, -4072.24, 6114.34, 365.50, -28118.20, 0.05, 0.99, 0.37
124, 54415.21, 60992.88, -8312.28, -14582.37, -4114.35, 6083.68, 387.53, -28130.47, 0.05, 0.99, 0.36
125, 54350.81, 60897.64, -8374.10, -14653.38, -4182.91, 6015.39, 332.06, -28206.00, 0.05, 0.99, 0.36
126, 54342.59, 60910.67, -8382.31, -14629.71, -4149.96, 6041.25, 302.73, -28204.62, 0.05, 0.99, 0.36
127, 54393.57, 60963.80, -8324.35, -14565.00, -4086.14, 6098.07, 343.01, -28148.13, 0.05, 0.99, 0.36
128, 54405.95, 60948.82, -8312.59, -14581.72, -4116.88, 6078.85, 370.99, -28148.87, 0.05, 0.99, 0.36
129, 54369.59, 60910.69, -8376.12, -14657.92, -4194.66, 6000.33, 324.06, -28220.26, 0.04, 0.99, 0.36
130, 54353.03, 60920.48, -8390.87, -14649.56, -4168.29, 6006.09, 293.30, -28228.67, 0.04, 0.99, 0.36
131, 54400.50, 60998.00, -8324.66, -14574.83, -4080.78, 6079.54, 336.82, -28166.66, 0.04, 0.99, 0.36
132, 54415.52, 60966.17, -8289.05, -14573.31, -4082.75, 6084.61, 378.62, -28148.56, 0.04, 0.99, 0.36
133, 54343.37, 60865.88, -8343.06, -14649.60, -4165.00, 6016.62, 341.89, -28205.49, 0.04, 0.99, 0.36
134, 54302.31, 60860.71, -8382.73, -14674.84, -4174.01, 6002.54, 289.43, -28236.22, 0.02, 0.99, 0.36
135, 54351.75, 60960.71, -8331.30, -14611.25, -4096.94, 6065.68, 312.01, -28185.93, 0.02, 0.99, 0.36
136, 54402.18, 60910.20, -8274.44, -14588.42, -4076.67, 6094.23, 368.56, -28145.12, 0.02, 0.99, 0.36
137, 54365.18, 60835.14, -8295.00, -14657.80, -4142.60, 6033.61, 352.17, -28199.12, 0.02, 0.99, 0.36
138, 54242.59, 60836.77, -8320.91, -14694.06, -4168.87, 5998.11, 295.51, -28256.27, 0.02, 0.99, 0.36
139, 54241.76, 60850.48, -8266.05, -14644.39, -4098.04, 6045.86, 304.36, -28221.91, 0.02, 0.99, 0.36
140, 54308.03, 60884.81, -8184.29, -14616.30, -4066.23, 6080.59, 356.15, -28175.83, -0.06, 1.00, 0.36
141, 54246.41, 60804.21, -8179.67, -14675.26, -4131.23, 6033.16, 357.76, -28216.97, -0.06, 1.00, 0.36
142, 54193.68, 60749.00, -8220.39, -14735.95, -4175.35, 5973.46, 304.83, -28277.46, -0.06, 1.00, 0.36
143, 54253.36, 60844.71, -8180.43, -14693.05, -4113.10, 6028.13, 300.94, -28253.23, -0.06, 1.00, 0.36
144, 54345.20, 60950.43, -8093.43, -14634.29, -4051.79, 6096.42, 366.32, -28199.99, -0.06, 1.00, 0.36
145, 54343.28, 60864.63, -8100.85, -14680.45, -4110.33, 6050.80, 377.66, -28235.21, -0.12, 0.98, 0.35
146, 54234.34, 60812.64, -8171.02, -14746.54, -4172.89, 5989.89, 330.87, -28294.78, -0.12, 0.98, 0.35
147, 54220.95, 60864.45, -8175.26, -14720.28, -4136.06, 6015.70, 314.40, -28284.48, -0.12, 0.98, 0.35
148, 54302.51, 60902.13, -8120.30, -14651.41, -4080.91, 6083.76, 371.22, -28222.74, -0.12, 0.98, 0.35
149, 54331.14, 60905.30, -8141.11, -14686.48, -4127.45, 6049.97, 399.07, -28242.52, -0.12, 0.98, 0.35
150, 54297.04, 60782.19, -8219.92, -14753.09, -4202.08, 5969.17, 356.64, -28309.06, -0.09, 0.98, 0.35
151, 54342.45, 60850.57, -8233.40, -14721.77, -4169.02, 5989.10, 339.30, -28292.17, -0.09, 0.98, 0.35
152, 54406.94, 60945.67, -8172.09, -14649.53, -4090.70, 6048.14, 395.40, -28225.80, -0.09, 0.98, 0.35
153, 54417.31, 60904.10, -8155.75, -14661.13, -4120.01, 6027.13, 429.67, -28230.34, -0.09, 0.98, 0.35
154, 54346.48, 60775.75, -8214.31, -14732.79, -4198.75, 5957.32, 393.75, -28290.00, -0.09, 0.98, 0.35
155, 54404.34, 60783.31, -8244.75, -14746.12, -4190.42, 5938.79, 353.45, -28311.43, -0.07, 0.99, 0.35
156, 54570.46, 60860.16, -8195.45, -14687.69, -4109.30, 5975.36, 390.55, -28256.16, -0.07, 0.99, 0.35
157, 54621.49, 60918.70, -8153.18, -14677.70, -4103.76, 6008.28, 442.94, -28232.24, -0.07, 0.99, 0.35
158, 54513.24, 60875.18, -8191.02, -14740.84, -4178.28, 5959.33, 420.41, -28284.77, -0.07, 0.99, 0.35
159, 54442.77, 60871.42, -8244.02, -14768.94, -4200.05, 5941.05, 363.31, -28328.62, -0.07, 0.99, 0.35
160, 54565.79, 60931.68, -8212.72, -14701.39, -4127.52, 6015.08, 379.20, -28281.01, -0.08, 0.99, 0.35
161, 54685.08, 60931.01, -8172.74, -14673.90, -4102.80, 6050.24, 439.01, -28239.06, -0.08, 0.99, 0.35
162, 54688.91, 60879.13, -8230.02, -14747.08, -4187.89, 5971.29, 419.16, -28297.02, -0.08, 0.99, 0.35
163, 54717.25, 60848.33, -8299.00, -14786.26, -4219.92, 5927.08, 372.36, -28341.68, -0.08, 0.99, 0.35
164, 54841.30, 60915.50, -8295.38, -14742.38, -4163.71, 5969.95, 375.60, -28316.46, -0.08, 0.99, 0.35
165, 54938.64, 60986.17, -8264.27, -14704.03, -4132.88, 6006.32, 428.68, -28280.16, -0.05, 0.99, 0.34
166, 54904.51, 60888.52, -8323.54, -14768.38, -4209.68, 5946.64, 430.81, -28313.87, -0.05, 0.99, 0.34
167, 54873.20, 60834.90, -8417.31, -14831.25, -4268.27, 5885.39, 375.53, -28355.91, -0.05, 0.99, 0.34
168, 54935.33, 60892.90, -8423.77, -14777.05, -4208.74, 5924.13, 380.43, -28316.96, -0.05, 0.99, 0.34
169, 54988.73, 60923.90, -8400.88, -14727.63, -4166.63, 5966.04, 437.60, -28268.96, -0.05, 0.99, 0.34
170, 54957.91, 60894.44, -8435.24, -14768.15, -4223.88, 5927.21, 444.60, -28294.20, -0.05, 0.99, 0.34
171, 54913.52, 60847.55, -8516.04, -14827.61, -4291.85, 5871.11, 393.37, -28346.88, 0.00, 1.00, 0.33
172, 54963.52, 60908.73, -8540.49, -14800.56, -4255.59, 5893.53, 373.56, -28337.81, 0.00, 1.00, 0.33
173, 55008.85, 60934.18, -8503.86, -14747.37, -4197.88, 5939.44, 415.90, -28288.86, 0.00, 1.00, 0.33
174, 55004.96, 60877.28, -8521.85, -14784.36, -4244.95, 5903.63, 426.25, -28302.65, 0.00, 1.00, 0.33
175, 54922.10, 60789.84, -8622.12, -14882.30, -4334.94, 5809.60, 363.51, -28389.51, 0.00, 1.00, 0.33
176, 54897.56, 60796.25, -8662.58, -14878.26, -4314.47, 5811.25, 329.38, -28396.79, 0.05, 1.00, 0.32
177, 54942.35, 60874.13, -8621.11, -14809.28, -4240.91, 5878.51, 377.36, -28330.43, 0.05, 1.00, 0.32
178, 54942.20, 60850.70, -8622.77, -14816.90, -4263.53, 5885.04, 410.96, -28323.50, 0.05, 1.00, 0.32
179, 54878.49, 60758.12, -8719.15, -14909.55, -4361.23, 5798.96, 361.18, -28393.91, 0.05, 1.00, 0.32
180, 54871.41, 60739.72, -8783.59, -14926.03, -4368.00, 5772.81, 304.63, -28422.97, 0.05, 1.00, 0.32
181, 54939.67, 60856.00, -8748.27, -14850.77, -4288.85, 5843.66, 338.92, -28360.92, 0.09, 1.00, 0.33
182, 54941.82, 60885.10, -8736.76, -14845.49, -4294.82, 5843.62, 375.82, -28346.37, 0.09, 1.00, 0.33
183, 54843.13, 60787.91, -8817.34, -14929.53, -4386.53, 5754.52, 335.03, -28411.05, 0.09, 1.00, 0.33
184, 54786.94, 60729.11, -8892.13, -14955.93, -4405.66, 5721.62, 285.34, -28435.91, 0.09, 1.00, 0.33
185, 54821.03, 60792.90, -8876.50, -14892.27, -4329.40, 5782.64, 309.55, -28385.87, 0.09, 1.00, 0.33
186, 54859.96, 60828.26, -8859.02, -14870.32, -4314.02, 5804.41, 355.01, -28358.42, 0.14, 0.99, 0.33
187, 54810.54, 60755.53, -8924.87, -14943.37, -4402.20, 5735.10, 330.11, -28406.99, 0.14, 0.99, 0.33
188, 54745.70, 60721.55, -9009.81, -14988.74, -4447.82, 5688.70, 264.89, -28462.29, 0.14, 0.99, 0.33
189, 54773.68, 60776.00, -9013.70, -14940.11, -4394.93, 5730.16, 260.78, -28428.60, 0.14, 0.99, 0.33
190, 54819.55, 60818.76, -8976.44, -14892.16, -4356.62, 5785.32, 323.16, -28352.05, 0.14, 0.99, 0.33
191, 54780.77, 60781.52, -9026.98, -14956.36, -4434.52, 5727.05, 313.53, -28383.03, 0.19, 0.99, 0.33
192, 54737.99, 60734.45, -9114.86, -15024.89, -4497.15, 5649.63, 246.12, -28446.55, 0.19, 0.99, 0.33
193, 54760.57, 60748.78, -9128.16, -14994.24, -4451.86, 5675.13, 232.15, -28431.89, 0.19, 0.99, 0.33
194, 54765.21, 60772.96, -9092.76, -14956.36, -4411.76, 5714.96, 267.35, -28386.20, 0.19, 0.99, 0.33
195, 54726.64, 60713.53, -9105.70, -15000.28, -4464.56, 5674.62, 268.18, -28405.74, 0.19, 0.99, 0.33
196, 54655.91, 60613.73, -9186.25, -15080.30, -4539.33, 5598.91, 204.21, -28475.07, 0.19, 0.99, 0.33
197, 54657.52, 60634.25, -9215.33, -15071.65, -4519.01, 5604.41, 161.22, -28484.93, 0.21, 1.00, 0.34
198, 54693.78, 60674.05, -9177.67, -15025.04, -4473.54, 5645.74, 178.37, -28456.77, 0.21, 1.00, 0.34
199, 54662.95, 60635.77, -9200.60, -15075.67, -4537.72, 5603.56, 174.25, -28479.50, 0.21, 1.00, 0.34
200, 54583.09, 60586.12, -9286.26, -15164.36, -4625.78, 5523.99, 109.23, -28546.55, 0.21, 1.00, 0.34
201, 54593.33, 60580.29, -9329.13, -15169.59, -4622.25, 5513.68, 59.21, -28574.92, 0.21, 1.00, 0.34
202, 54638.86, 60594.97, -9290.41, -15112.91, -4560.18, 5568.33, 84.74, -28528.29, 0.22, 0.99, 0.34
203, 54603.97, 60553.38, -9288.11, -15136.51, -4593.44, 5548.44, 95.87, -28529.90, 0.22, 0.99, 0.34
204, 54539.11, 60491.73, -9361.18, -15224.98, -4690.25, 5463.30, 34.04, -28611.28, 0.22, 0.99, 0.34
205, 54526.83, 60486.75, -9403.96, -15234.39, -4687.88, 5448.64, -14.28, -28641.79, 0.22, 0.99, 0.34
206, 54582.06, 60538.56, -9366.97, -15171.74, -4619.73, 5504.21, 5.21, -28603.01, 0.22, 0.99, 0.34
207, 54599.57, 60542.52, -9340.73, -15166.69, -4626.92, 5507.65, 31.54, -28594.05, 0.22, 0.99, 0.35
208, 54534.21, 60473.18, -9392.67, -15232.20, -4707.10, 5457.31, 8.56, -28616.02, 0.22, 0.99, 0.35
209, 54500.32, 60446.38, -9449.56, -15258.44, -4725.09, 5439.81, -32.77, -28633.34, 0.22, 0.99, 0.35
210, 54536.60, 60498.48, -9437.15, -15214.74, -4665.05, 5476.69, -28.41, -28613.16, 0.22, 0.99, 0.35
211, 54576.90, 60526.84, -9399.82, -15192.79, -4650.41, 5499.98, 8.40, -28588.55, 0.22, 0.99, 0.35
212, 54520.06, 60447.07, -9431.63, -15253.92, -4717.87, 5438.54, -5.05, -28633.79, 0.21, 0.99, 0.35
213, 54452.71, 60377.83, -9506.24, -15312.04, -4765.37, 5377.78, -70.63, -28698.59, 0.21, 0.99, 0.35
214, 54470.84, 60400.96, -9514.29, -15287.41, -4726.41, 5405.41, -89.12, -28688.48, 0.21, 0.99, 0.35
215, 54497.69, 60437.44, -9472.07, -15257.10, -4696.95, 5437.13, -53.62, -28651.85, 0.21, 0.99, 0.35
216, 54450.25, 60383.37, -9497.57, -15317.81, -4767.85, 5380.98, -71.88, -28701.45, 0.21, 0.99, 0.35
217, 54416.30, 60331.31, -9553.85, -15364.86, -4809.92, 5327.36, -124.99, -28760.86, 0.20, 0.98, 0.34
218, 54453.79, 60386.95, -9545.80, -15318.14, -4751.82, 5376.38, -124.41, -28724.31, 0.20, 0.98, 0.34
219, 54514.05, 60423.04, -9490.93, -15266.80, -4701.40, 5435.12, -77.56, -28664.03, 0.20, 0.98, 0.34
220, 54485.86, 60376.71, -9509.73, -15324.13, -4767.09, 5381.81, -85.14, -28703.75, 0.20, 0.98, 0.34
221, 54408.57, 60316.47, -9575.84, -15395.17, -4835.53, 5309.50, -145.20, -28775.50, 0.20, 0.98, 0.34
222, 54399.14, 60323.60, -9576.34, -15365.15, -4793.06, 5335.79, -166.21, -28769.51, 0.18, 0.99, 0.34
223, 54470.95, 60398.73, -9496.94, -15283.92, -4707.50, 5411.45, -105.59, -28704.82, 0.18, 0.99, 0.34
224, 54478.64, 60389.11, -9463.66, -15288.08, -4723.24, 5408.99, -67.75, -28696.44, 0.18, 0.99, 0.34
225, 54440.42, 60317.23, -9516.41, -15356.59, -4793.67, 5345.51, -113.17, -28759.34, 0.18, 0.99, 0.34
226, 54441.05, 60326.29, -9527.30, -15345.30, -4767.87, 5352.17, -146.09, -28774.00, 0.18, 0.99, 0.34
227, 54492.84, 60389.38, -9444.08, -15251.24, -4665.46, 5443.28, -85.47, -28688.15, 0.18, 0.99, 0.34
228, 54513.69, 60391.93, -9401.68, -15243.69, -4664.76, 5458.14, -38.27, -28659.99, 0.15, 1.00, 0.34
229, 54483.87, 60336.09, -9443.28, -15305.04, -4733.23, 5405.17, -63.01, -28696.82, 0.15, 1.00, 0.34
230, 54489.84, 60354.45, -9460.22, -15292.68, -4710.27, 5417.64, -79.59, -28688.84, 0.15, 1.00, 0.34
231, 54553.23, 60466.34, -9395.64, -15199.23, -4605.51, 5507.31, -25.03, -28613.45, 0.15, 1.00, 0.34
232, 54587.76, 60496.25, -9348.35, -15170.98, -4588.41, 5532.77, 26.62, -28580.08, 0.15, 1.00, 0.34
233, 54524.51, 60418.66, -9396.61, -15238.10, -4671.45, 5465.14, -4.40, -28635.06, 0.15, 0.99, 0.34
234, 54502.96, 60379.64, -9439.86, -15255.49, -4685.04, 5443.52, -44.97, -28661.22, 0.15, 0.99, 0.34
235, 54580.75, 60457.69, -9395.04, -15176.21, -4596.01, 5514.87, -8.81, -28602.54, 0.15, 0.99, 0.34
236, 54652.65, 60530.67, -9317.75, -15113.56, -4539.91, 5573.79, 68.66, -28536.11, 0.15, 0.99, 0.34
237, 54636.29, 60493.95, -9322.15, -15148.02, -4586.22, 5539.97, 82.01, -28546.75, 0.15, 0.99, 0.34
238, 54627.10, 60486.63, -9345.31, -15157.63, -4591.38, 5529.96, 54.18, -28562.60, 0.16, 1.01, 0.35
239, 54709.02, 60585.41, -9294.48, -15077.35, -4497.93, 5606.17, 83.75, -28509.22, 0.16, 1.01, 0.35
240, 54787.68, 60643.79, -9209.95, -15008.44, -4431.66, 5675.31, 156.19, -28435.60, 0.16, 1.01, 0.35
241, 54771.47, 60599.22, -9184.35, -15022.34, -4460.65, 5663.55, 184.38, -28429.05, 0.16, 1.01, 0.35
242, 54737.25, 60571.68, -9218.40, -15057.23, -4493.51, 5625.58, 149.26, -28470.00, 0.16, 1.01, 0.35
243, 54764.32, 60632.52, -9203.08, -15014.56, -4434.72, 5671.75, 148.24, -28434.70, 0.15, 1.01, 0.34
244, 54820.54, 60702.33, -9135.85, -14956.85, -4377.12, 5730.34, 194.15, -28373.24, 0.15, 1.01, 0.34
245, 54818.66, 60656.39, -9116.25, -14981.61, -4408.81, 5704.46, 213.71, -28376.90, 0.15, 1.01, 0.34
246, 54769.10, 60591.04, -9163.48, -15039.64, -4468.14, 5649.69, 172.58, -28417.87, 0.15, 1.01, 0.34
247, 54774.13, 60603.31, -9177.00, -15028.24, -4443.82, 5660.42, 138.89, -28411.77, 0.15, 1.01, 0.34
248, 54833.05, 60654.77, -9114.17, -14966.17, -4376.76, 5718.54, 174.95, -28357.12, 0.14, 1.00, 0.34
249, 54861.24, 60644.30, -9075.61, -14963.31, -4386.55, 5721.44, 210.24, -28339.80, 0.14, 1.00, 0.34
250, 54812.11, 60619.94, -9115.76, -15020.08, -4444.51, 5671.49, 186.46, -28367.76, 0.14, 1.00, 0.34
251, 54810.41, 60662.79, -9120.92, -14999.96, -4410.00, 5695.65, 170.48, -28349.86, 0.14, 1.00, 0.34
252, 54873.87, 60717.15, -9063.61, -14932.51, -4334.38, 5757.88, 209.39, -28288.43, 0.14, 1.00, 0.34
253, 54907.86, 60722.51, -9008.38, -14907.36, -4320.17, 5781.93, 264.89, -28247.62, 0.12, 0.99, 0.34
254, 54852.92, 60663.71, -9033.59, -14957.23, -4381.32, 5731.86, 247.05, -28279.52, 0.12, 0.99, 0.34
255, 54843.85, 60661.09, -9048.90, -14951.17, -4365.79, 5731.32, 221.62, -28287.90, 0.12, 0.99, 0.34
0, 54912.51, 60728.70, -8998.28, -14875.00, -4279.00, 5806.54, 258.52, -28223.64, 0.12, 0.99, 0.34
1, 54968.19, 60785.52, -8944.32, -14840.78, -4255.71, 5842.08, 313.55, -28181.01, 0.12, 0.99, 0.34
2, 54938.93, 60737.46, -8974.72, -14896.52, -4322.69, 5787.96, 301.35, -28221.04, 0.12, 0.99, 0.34
3, 54912.91, 60703.22, -9033.03, -14930.56, -4353.69, 5751.77, 246.56, -28263.04, 0.12, 0.99, 0.35
4, 54969.40, 60752.57, -9006.21, -14868.76, -4283.20, 5807.90, 260.91, -28220.73, 0.12, 0.99, 0.35
5, 54999.89, 60805.08, -8957.77, -14835.43, -4253.63, 5839.91, 310.26, -28184.36, 0.12, 0.99, 0.35
6, 54947.38, 60751.35, -8972.46, -14881.75, -4310.29, 5797.35, 311.72, -28213.71, 0.12, 0.99, 0.35
7, 54887.23, 60684.05, -9024.70, -14925.62, -4352.42, 5751.68, 260.87, -28263.76, 0.12, 0.99, 0.35
8, 54936.72, 60747.93, -9004.36, -14873.81, -4291.71, 5798.49, 268.42, -28221.09, 0.12, 0.99, 0.35
9, 55017.12, 60797.44, -8943.96, -14824.06, -4245.98, 5846.43, 318.29, -28166.79, 0.12, 0.99, 0.35
10, 54994.39, 60745.54, -8948.83, -14865.50, -4294.93, 5806.98, 324.55, -28191.05, 0.12, 0.99, 0.35
11, 54923.84, 60680.63, -9001.52, -14917.80, -4343.88, 5752.56, 278.64, -28256.45, 0.12, 0.99, 0.35
12, 54942.87, 60709.48, -9008.92, -14890.69, -4306.18, 5776.74, 256.33, -28254.44, 0.12, 0.99, 0.35
13, 55028.12, 60803.80, -8940.43, -14822.02, -4235.70, 5849.16, 309.97, -28181.66, 0.11, 0.99, 0.35
14, 54999.57, 60788.83, -8925.99, -14846.83, -4269.41, 5829.18, 329.89, -28188.90, 0.11, 0.99, 0.35
15, 54936.63, 60746.41, -8983.41, -14912.41, -4336.89, 5763.69, 278.30, -28252.51, 0.11, 0.99, 0.35
16, 54944.59, 60718.27, -9008.71, -14906.98, -4316.39, 5765.95, 248.08, -28265.30, 0.11, 0.99, 0.35
17, 54999.30, 60761.88, -8949.75, -14841.94, -4244.40, 5833.56, 291.09, -28208.57, 0.11, 0.99, 0.35
18, 54994.18, 60758.88, -8915.15, -14845.83, -4259.62, 5831.41, 321.53, -28200.53, 0.10, 0.98, 0.35
19, 54944.00, 60705.82, -8958.09, -14909.26, -4326.78, 5769.43, 286.50, -28252.74, 0.10, 0.98, 0.35
20, 54938.98, 60713.73, -8992.82, -14918.98, -4327.45, 5759.33, 243.95, -28278.24, 0.10, 0.98, 0.35
21, 55003.30, 60790.44, -8947.67, -14860.33, -4260.13, 5820.82, 275.31, -28228.35, 0.10, 0.98, 0.35
22, 55010.28, 60774.35, -8912.18, -14855.55, -4265.58, 5823.43, 309.19, -28218.38, 0.10, 0.98, 0.35
23, 54973.11, 60715.00, -8949.06, -14918.34, -4337.45, 5759.75, 282.17, -28273.93, 0.08, 0.99, 0.35
24, 54944.77, 60706.15, -8996.44, -14947.68, -4355.35, 5728.64, 231.09, -28315.35, 0.08, 0.99, 0.35
25, 54961.29, 60761.89, -8959.56, -14888.65, -4286.68, 5788.81, 250.05, -28270.31, 0.08, 0.99, 0.35
26, 54986.23, 60781.05, -8905.25, -14855.17, -4261.74, 5826.99, 309.24, -28224.40, 0.08, 0.99, 0.35
27, 54946.15, 60729.87, -8944.36, -14923.19, -4339.26, 5761.41, 287.06, -28272.88, 0.08, 0.99, 0.35
28, 54918.91, 60692.00, -9001.43, -14963.42, -4376.07, 5716.08, 226.18, -28323.91, 0.08, 0.99, 0.35
29, 54975.25, 60754.66, -8969.40, -14902.18, -4305.75, 5769.52, 235.10, -28288.90, 0.09, 0.99, 0.35
30, 55014.41, 60790.55, -8910.68, -14854.30, -4268.40, 5817.89, 289.68, -28236.94, 0.09, 0.99, 0.35
31, 54976.97, 60727.41, -8928.45, -14902.87, -4329.82, 5767.42, 292.67, -28269.17, 0.09, 0.99, 0.35
32, 54936.85, 60672.27, -8999.24, -14963.31, -4388.70, 5700.63, 230.45, -28329.83, 0.09, 0.99, 0.35
33, 54935.98, 60692.65, -9001.20, -14932.15, -4348.02, 5729.27, 213.97, -28313.65, 0.09, 0.99, 0.35
34, 54983.57, 60764.63, -8936.03, -14872.89, -4289.39, 5788.50, 268.85, -28258.28, 0.09, 0.99, 0.35
35, 54959.74, 60727.81, -8938.10, -14910.58, -4336.19, 5757.68, 288.99, -28267.40, 0.09, 0.99, 0.35
36, 54913.38, 60675.84, -9001.16, -14973.28, -4395.58, 5697.84, 236.32, -28324.49, 0.09, 0.99, 0.35
37, 54972.95, 60732.23, -8994.45, -14937.94, -4343.79, 5726.58, 223.32, -28312.98, 0.09, 0.99, 0.35
38, 55026.33, 60781.01, -8936.88, -14881.03, -4284.05, 5786.15, 266.10, -28267.49, 0.09, 0.99, 0.35
39, 54978.79, 60748.08, -8927.69, -14905.77, -4321.78, 5763.75, 284.31, -28279.27, 0.09, 0.99, 0.35
40, 54930.17, 60695.58, -8980.28, -14968.05, -4383.00, 5703.29, 238.54, -28337.41, 0.09, 0.99, 0.35
41, 54948.39, 60721.08, -8992.82, -14955.28, -4353.90, 5720.50, 217.17, -28334.19, 0.09, 0.99, 0.35
42, 55014.77, 60770.41, -8939.56, -14887.92, -4284.99, 5782.98, 256.49, -28276.90, 0.09, 0.99, 0.35
43, 55019.02, 60730.43, -8906.10, -14883.65, -4293.21, 5788.03, 297.30, -28256.38, 0.09, 0.99, 0.35
44, 54954.54, 60686.21, -8955.43, -14950.81, -4363.33, 5721.93, 260.87, -28319.66, 0.07, 0.99, 0.35
45, 54948.95, 60709.64, -8978.14, -14948.40, -4350.86, 5721.49, 228.21, -28336.33, 0.07, 0.99, 0.35
46, 55011.87, 60773.52, -8928.52, -14880.70, -4275.51, 5788.88, 260.24, -28280.70, 0.07, 0.99, 0.35
47, 55035.52, 60800.50, -8887.52, -14870.44, -4271.51, 5803.54, 303.25, -28257.54, 0.07, 0.99, 0.35
48, 54980.80, 60724.46, -8933.59, -14941.11, -4349.22, 5740.75, 283.71, -28307.28, 0.07, 0.99, 0.35
49, 54943.63, 60728.75, -8978.90, -14962.77, -4363.46, 5717.87, 241.44, -28339.15, 0.08, 0.99, 0.35
50, 55020.65, 60816.97, -8932.56, -14887.80, -4276.60, 5784.61, 270.10, -28288.32, 0.08, 0.99, 0.35
51, 55087.48, 60799.67, -8865.22, -14841.29, -4239.43, 5827.30, 335.39, -28239.57, 0.08, 0.99, 0.35
52, 55013.56, 60728.32, -8899.24, -14905.62, -4315.21, 5764.16, 316.59, -28289.75, 0.08, 0.99, 0.35
53, 54961.77, 60714.85, -8950.11, -14940.69, -4345.04, 5728.15, 268.36, -28326.72, 0.08, 0.99, 0.35
54, 55023.31, 60782.13, -8920.27, -14880.03, -4273.36, 5786.37, 280.02, -28285.37, 0.08, 0.99, 0.35
55, 55072.11, 60824.41, -8860.81, -14832.50, -4231.39, 5835.91, 337.89, -28232.13, 0.08, 0.99, 0.35
56, 55029.57, 60793.14, -8875.27, -14880.54, -4291.38, 5785.66, 335.72, -28271.49, 0.08, 0.99, 0.35
57, 54970.34, 60745.78, -8935.71, -14935.03, -4343.19, 5730.00, 282.55, -28328.24, 0.08, 0.99, 0.35
58, 55000.69, 60776.58, -8933.17, -14900.16, -4297.64, 5764.13, 270.43, -28308.04, 0.08, 0.99, 0.35
59, 55067.61, 60833.46, -8869.22, -14838.32, -4237.60, 5824.86, 327.70, -28240.40, 0.08, 0.99, 0.35
60, 55053.89, 60798.26, -8867.09, -14864.56, -4279.89, 5802.07, 342.18, -28249.45, 0.08, 0.99, 0.35
61, 55020.07, 60737.76, -8927.08, -14923.05, -4340.31, 5747.19, 292.09, -28304.08, 0.08, 0.99, 0.35
62, 55049.17, 60784.85, -8925.25, -14894.80, -4297.61, 5773.70, 276.94, -28291.47, 0.08, 0.99, 0.35
63, 55090.97, 60845.92, -8861.15, -14829.35, -4228.23, 5836.44, 327.30, -28232.40, 0.08, 0.99, 0.35
64, 55073.89, 60829.11, -8842.89, -14843.93, -4257.60, 5822.92, 353.02, -28225.76, 0.08, 0.99, 0.35
65, 55017.77, 60765.18, -8896.96, -14908.17, -4322.98, 5758.06, 310.71, -28285.04, 0.09, 1.00, 0.35
66, 55000.09, 60751.08, -8930.28, -14911.25, -4307.90, 5749.00, 272.56, -28305.67, 0.09, 1.00, 0.35
67, 55073.04, 60834.65, -8873.62, -14839.28, -4232.30, 5819.12, 316.28, -28244.98, 0.09, 1.00, 0.35
68, 55091.53, 60837.18, -8846.40, -14840.98, -4246.90, 5818.18, 350.43, -28237.49, 0.09, 1.00, 0.35
69, 55027.38, 60765.65, -8897.45, -14908.90, -4323.32, 5753.85, 312.72, -28300.15, 0.09, 1.00, 0.35
70, 55004.15, 60742.74, -8937.17, -14919.25, -4328.24, 5743.91, 268.18, -28326.50, 0.09, 1.00, 0.35
71, 55061.38, 60804.86, -8888.55, -14850.81, -4249.80, 5807.56, 300.79, -28270.06, 0.09, 1.00, 0.35
72, 55090.59, 60844.66, -8840.74, -14829.04, -4239.19, 5830.97, 355.68, -28230.01, 0.09, 1.00, 0.35
73, 55066.49, 60799.13, -8876.82, -14890.20, -4312.46, 5774.62, 337.38, -28261.90, 0.09, 1.00, 0.35
74, 55048.28, 60771.29, -8922.50, -14915.27, -4329.58, 5749.20, 285.74, -28304.06, 0.09, 1.00, 0.35
75, 55069.13, 60819.34, -8883.68, -14849.58, -4254.27, 5811.21, 305.50, -28259.40, 0.08, 0.99, 0.35
76, 55096.58, 60828.68, -8832.47, -14813.08, -4227.97, 5849.27, 361.76, -28211.05, 0.08, 0.99, 0.35
77, 55047.96, 60782.75, -8863.07, -14873.28, -4295.83, 5787.54, 348.04, -28259.00, 0.08, 0.99, 0.35
78, 55011.20, 60752.40, -8921.27, -14916.84, -4335.55, 5740.62, 287.91, -28317.65, 0.08, 0.99, 0.35
79, 55065.33, 60808.05, -8895.08, -14855.95, -4263.84, 5803.14, 297.26, -28269.86, 0.08, 0.99, 0.35
80, 55114.50, 60844.31, -8838.42, -14809.64, -4217.15, 5857.45, 358.90, -28204.48, 0.09, 0.99, 0.34
81, 55094.37, 60817.62, -8854.55, -14856.91, -4275.40, 5811.43, 359.42, -28236.15, 0.09, 0.99, 0.34
82, 55037.44, 60765.59, -8925.90, -14919.95, -4335.59, 5744.08, 299.65, -28303.72, 0.09, 0.99, 0.34
83, 55046.82, 60755.91, -8934.86, -14892.16, -4298.62, 5767.22, 279.26, -28297.71, 0.09, 0.99, 0.34
84, 55094.34, 60798.13, -8882.00, -14839.39, -4248.11, 5817.56, 323.07, -28256.98, 0.09, 0.99, 0.34
85, 55068.06, 60788.88, -8876.26, -14863.06, -4287.11, 5797.93, 343.28, -28257.68, 0.09, 0.99, 0.34
86, 55005.12, 60744.06, -8938.86, -14924.50, -4355.93, 5731.95, 291.49, -28324.22, 0.11, 0.99, 0.34
87, 55046.29, 60784.74, -8957.39, -14911.97, -4324.86, 5734.99, 262.21, -28338.55, 0.11, 0.99, 0.34
88, 55144.03, 60855.13, -8897.16, -14842.50, -4256.06, 5803.21, 307.65, -28276.72, 0.11, 0.99, 0.34
89, 55113.84, 60819.34, -8864.28, -14825.04, -4271.91, 5824.44, 358.03, -28236.35, 0.11, 0.99, 0.34
90, 55013.83, 60728.52, -8935.51, -14898.31, -4352.11, 5751.86, 319.16, -28297.91, 0.11, 0.99, 0.34
91, 55023.24, 60740.33, -8963.07, -14885.37, -4328.04, 5758.08, 288.99, -28310.67, 0.13, 1.00, 0.34
92, 55075.25, 60812.59, -8906.90, -14808.16, -4246.25, 5831.57, 339.59, -28246.39, 0.13, 1.00, 0.34
93, 55092.31, 60817.11, -8877.98, -14797.17, -4258.21, 5843.39, 375.80, -28223.75, 0.13, 1.00, 0.34
94, 55020.85, 60735.61, -8940.07, -14865.23, -4341.13, 5776.65, 343.66, -28267.54, 0.13, 1.00, 0.34
95, 54970.58, 60722.07, -8991.48, -14878.53, -4352.35, 5757.72, 292.49, -28298.47, 0.13, 1.00, 0.34
96, 55022.55, 60776.89, -8951.40, -14804.41, -4282.53, 5829.40, 306.00, -28246.70, 0.16, 1.00, 0.35
97, 55042.31, 60780.65, -8901.47, -14768.74, -4259.55, 5867.06, 365.59, -28198.36, 0.16, 1.00, 0.35
98, 54982.32, 60719.11, -8936.88, -14825.26, -4318.25, 5811.79, 364.85, -28237.81, 0.16, 1.00, 0.35
99, 54949.79, 60709.01, -8998.90, -14860.98, -4348.58, 5772.02, 311.38, -28282.44, 0.16, 1.00, 0.35
100, 54991.10, 60758.54, -8963.81, -14791.11, -4266.70, 5839.48, 346.43, -28229.56, 0.16, 1.00, 0.35
101, 55019.98, 60790.13, -8910.48, -14754.88, -4226.63, 5876.85, 411.63, -28184.68, 0.18, 0.99, 0.35
102, 54969.02, 60732.70, -8954.49, -14828.84, -4308.21, 5818.56, 377.39, -28231.68, 0.18, 0.99, 0.35
103, 54899.04, 60687.58, -9021.34, -14875.15, -4355.59, 5784.61, 322.74, -28271.16, 0.18, 0.99, 0.35
104, 54905.58, 60701.05, -9012.02, -14824.88, -4282.10, 5829.20, 344.17, -28239.62, 0.18, 0.99, 0.35
105, 54944.18, 60711.65, -8960.43, -14773.74, -4223.56, 5879.36, 410.27, -28183.52, 0.18, 0.99, 0.35
106, 54901.74, 60671.59, -8982.85, -14818.94, -4281.95, 5837.58, 417.06, -28211.90, 0.19, 0.96, 0.34
107, 54851.98, 60640.48, -9056.12, -14876.58, -4344.62, 5783.65, 357.61, -28270.46, 0.19, 0.96, 0.34
108, 54873.93, 60685.34, -9066.63, -14846.86, -4301.08, 5815.68, 346.30, -28254.64, 0.19, 0.96, 0.34
109, 54926.50, 60722.22, -9012.49, -14785.97, -4237.73, 5881.06, 401.55, -28189.84, 0.19, 0.96, 0.34
110, 54895.28, 60700.52, -9011.24, -14812.25, -4281.34, 5863.73, 416.30, -28193.24, 0.19, 0.96, 0.34
111, 54848.07, 60642.16, -9081.71, -14882.28, -4356.00, 5789.79, 360.96, -28261.79, 0.18, 0.95, 0.34
112, 54846.80, 60665.11, -9104.80, -14864.00, -4328.88, 5800.90, 331.95, -28267.51, 0.18, 0.95, 0.34
113, 54883.54, 60730.76, -9035.96, -14781.30, -4252.17, 5883.94, 379.93, -28198.96, 0.18, 0.95, 0.34
114, 54885.06, 60744.71, -9010.12, -14790.46, -4272.78, 5877.84, 411.41, -28188.25, 0.18, 0.95, 0.34
115, 54837.79, 60690.57, -9069.56, -14865.70, -4355.73, 5802.78, 359.21, -28252.13, 0.18, 0.95, 0.34
116, 54835.71, 60673.99, -9100.27, -14868.63, -4347.06, 5795.85, 315.45, -28276.79, 0.18, 0.95, 0.34
117, 54888.17, 60732.01, -9035.65, -14791.51, -4260.76, 5867.31, 354.68, -28215.12, 0.16, 0.97, 0.34
118, 54929.54, 60750.56, -8982.52, -14770.88, -4250.23, 5886.13, 401.77, -28184.52, 0.16, 0.97, 0.34
119, 54879.63, 60685.27, -9039.87, -14860.80, -4348.29, 5797.71, 349.54, -28263.29, 0.16, 0.97, 0.34
120, 54830.21, 60675.02, -9077.87, -14880.41, -4365.12, 5773.88, 287.71, -28313.98, 0.16, 0.97, 0.34
121, 54895.12, 60750.03, -9026.46, -14811.76, -4289.23, 5833.76, 308.10, -28279.56, 0.16, 0.97, 0.34
122, 54948.95, 60794.60, -8968.88, -14783.44, -4271.24, 5861.59, 357.90, -28239.10, 0.13, 0.98, 0.34
123, 54903.28, 60727.14, -8987.03, -14831.19, -4332.15, 5831.44, 360.91, -28235.73, 0.13, 0.98, 0.34
124, 54877.02, 60698.51, -9033.81, -14868.96, -4360.74, 5801.46, 305.53, -28270.49, 0.13, 0.98, 0.34
125, 54915.35, 60768.69, -8995.10, -14811.94, -4287.71, 5852.87, 310.18, -28240.06, 0.13, 0.98, 0.34
126, 54967.32, 60833.58, -8926.97, -14770.43, -4253.18, 5890.27, 356.91, -28202.80, 0.13, 0.98, 0.34
127, 54915.35, 60758.27, -8950.00, -14838.23, -4330.29, 5819.37, 338.14, -28261.92, 0.10, 1.00, 0.33
128, 54894.86, 60694.39, -9004.94, -14891.16, -4383.58, 5769.68, 271.93, -28323.12, 0.10, 1.00, 0.33
129, 54916.09, 60749.78, -8989.45, -14848.73, -4333.18, 5812.30, 262.23, -28301.46, 0.10, 1.00, 0.33
130, 54958.69, 60820.75, -8920.40, -14791.24, -4278.50, 5870.93, 317.35, -28248.56, 0.10, 1.00, 0.33
131, 54954.94, 60797.59, -8913.07, -14826.51, -4325.82, 5837.43, 320.86, -28283.16, 0.10, 1.00, 0.33
132, 54916.87, 60728.05, -8969.13, -14890.58, -4386.53, 5770.75, 263.26, -28353.79, 0.07, 1.02, 0.33
133, 54921.90, 60751.28, -8978.72, -14870.88, -4354.28, 5788.99, 237.73, -28349.43, 0.07, 1.02, 0.33
134, 54979.05, 60823.07, -8907.88, -14802.53, -4284.09, 5860.54, 298.89, -28270.60, 0.07, 1.02, 0.33
135, 54971.72, 60805.93, -8889.47, -14824.62, -4316.88, 5842.14, 322.29, -28273.64, 0.07, 1.02, 0.33
136, 54919.11, 60742.05, -8942.84, -14892.50, -4389.70, 5773.05, 267.39, -28347.80, 0.07, 1.02, 0.33
137, 54933.99, 60747.17, -8967.39, -14891.27, -4373.32, 5776.00, 226.91, -28365.68, 0.05, 1.01, 0.33
138, 54987.88, 60808.86, -8919.22, -14841.51, -4310.33, 5825.47, 259.75, -28327.68, 0.05, 1.01, 0.33
139, 54964.79, 60804.07, -8895.01, -14858.14, -4335.79, 5815.14, 287.24, -28331.75, 0.05, 1.01, 0.33
140, 54896.02, 60710.53, -8948.72, -14934.99, -4414.16, 5748.18, 245.98, -28391.54, 0.05, 1.01, 0.33
141, 54863.88, 60674.59, -9001.87, -14969.66, -4433.31, 5718.13, 183.91, -28428.06, 0.05, 1.01, 0.33
142, 54924.16, 60759.66, -8948.50, -14908.75, -4362.17, 5774.91, 204.61, -28386.51, 0.02, 1.00, 0.32
143, 54936.61, 60765.14, -8903.68, -14897.86, -4358.03, 5783.69, 246.05, -28374.04, 0.02, 1.00, 0.32
144, 54870.60, 60677.36, -8949.82, -14976.70, -4437.87, 5699.23, 209.41, -28459.00, 0.02, 1.00, 0.32
145, 54839.91, 60649.98, -9006.46, -15008.75, -4470.17, 5670.10, 143.81, -28504.73, 0.02, 1.00, 0.32
146, 54913.52, 60726.29, -8961.64, -14935.93, -4392.48, 5747.84, 168.89, -28431.11, 0.02, 1.00, 0.32
147, 54942.48, 60752.96, -8920.45, -14919.36, -4386.66, 5771.06, 209.50, -28392.82, 0.02, 1.00, 0.32
148, 54893.82, 60703.43, -8954.85, -14982.87, -4461.92, 5705.75, 184.74, -28450.24, 0.01, 1.00, 0.31
149, 54847.98, 60648.98, -9009.16, -15020.33, -4493.84, 5666.99, 129.64, -28501.65, 0.01, 1.00, 0.31
150, 54889.56, 60699.60, -8977.91, -14955.08, -4419.12, 5729.82, 145.51, -28453.75, 0.01, 1.00, 0.31
151, 54924.61, 60744.21, -8924.31, -14914.94, -4381.81, 5767.15, 196.11, -28415.37, 0.01, 1.00, 0.31
152, 54881.04, 60687.89, -8943.65, -14969.88, -4449.38, 5714.42, 190.37, -28451.11, 0.01, 1.00, 0.31
153, 54831.49, 60638.61, -9005.85, -15027.41, -4504.75, 5658.59, 128.46, -28504.89, 0.00, 1.01, 0.31
154, 54868.68, 60692.72, -9004.65, -14992.34, -4458.30, 5688.50, 109.77, -28491.92, 0.00, 1.01, 0.31
155, 54935.24, 60742.63, -8940.65, -14933.87, -4399.99, 5745.76, 162.43, -28439.38, 0.00, 1.01, 0.31
156, 54906.93, 60695.98, -8938.17, -14970.35, -4449.63, 5709.24, 174.63, -28464.23, 0.00, 1.01, 0.31
157, 54845.21, 60626.38, -9008.09, -15044.27, -4522.76, 5636.28, 113.21, -28540.94, 0.00, 1.01, 0.31
158, 54855.18, 60657.78, -9014.59, -15017.02, -4478.75, 5664.31, 98.19, -28524.04, 0.00, 1.01, 0.32
159, 54905.47, 60727.56, -8943.13, -14946.43, -4405.13, 5735.03, 155.88, -28462.15, 0.00, 1.01, 0.32
160, 54909.16, 60700.92, -8918.10, -14958.26, -4431.84, 5722.74, 187.20, -28460.63, 0.00, 1.01, 0.32
161, 54853.26, 60635.72, -8976.84, -15027.50, -4503.61, 5651.77, 141.40, -28526.19, 0.00, 1.01, 0.32
162, 54823.38, 60639.83, -9007.33, -15025.71, -4493.80, 5648.67, 101.16, -28545.68, 0.00, 1.01, 0.32
163, 54893.07, 60715.18, -8946.60, -14946.34, -4412.73, 5727.17, 147.72, -28469.59, -0.00, 1.01, 0.31
164, 54912.13, 60713.82, -8913.70, -14940.15, -4417.51, 5740.84, 192.67, -28440.49, -0.00, 1.01, 0.31
165, 54854.06, 60648.95, -8969.78, -15017.29, -4502.38, 5666.59, 149.11, -28506.30, -0.00, 1.01, 0.31
166, 54853.37, 60650.85, -9011.31, -15028.02, -4504.88, 5649.52, 96.54, -28540.99, -0.00, 1.01, 0.31
167, 54910.28, 60697.68, -8958.42, -14952.62, -4424.42, 5720.64, 127.81, -28480.77, -0.00, 1.01, 0.31
168, 54912.16, 60699.20, -8913.12, -14936.60, -4415.97, 5730.88, 175.57, -28460.63, -0.00, 1.01, 0.32
169, 54848.03, 60642.70, -8956.43, -15008.53, -4492.14, 5659.26, 148.93, -28521.32, -0.00, 1.01, 0.32
170, 54824.16, 60612.27, -9000.06, -15026.76, -4506.25, 5650.21, 105.63, -28535.38, -0.00, 1.01, 0.32
171, 54885.24, 60669.14, -8956.43, -14955.06, -4422.56, 5725.67, 139.01, -28470.58, -0.00, 1.01, 0.32
172, 54934.48, 60715.65, -8901.11, -14919.81, -4393.06, 5757.65, 191.96, -28433.97, -0.00, 1.01, 0.32
173, 54884.28, 60656.60, -8938.82, -14991.14, -4473.21, 5685.57, 171.53, -28496.24, -0.00, 1.01, 0.32
174, 54828.36, 60610.15, -9004.38, -15037.27, -4513.62, 5641.27, 111.94, -28547.63, -0.01, 1.00, 0.33
175, 54897.67, 60684.74, -8967.99, -14967.80, -4429.42, 5711.68, 135.83, -28492.53, -0.01, 1.00, 0.33
176, 54966.13, 60743.75, -8891.57, -14900.43, -4367.75, 5778.75, 207.38, -28422.03, -0.01, 1.00, 0.33
177, 54939.94, 60709.48, -8895.99, -14938.36, -4419.77, 5740.11, 220.23, -28442.01, -0.01, 1.00, 0.33
178, 54887.41, 60666.50, -8959.34, -14998.02, -4480.65, 5677.92, 157.16, -28510.79, -0.01, 1.00, 0.33
179, 54907.66, 60693.19, -8954.94, -14955.46, -4427.63, 5715.81, 141.73, -28496.86, -0.00, 1.00, 0.33
180, 54963.96, 60758.43, -8878.43, -14875.89, -4356.33, 5798.49, 204.16, -28414.41, -0.00, 1.00, 0.33
181, 54956.03, 60719.23, -8870.65, -14903.00, -4389.68, 5775.20, 237.80, -28414.34, -0.00, 1.00, 0.33
182, 54901.09, 60677.00, -8936.36, -14971.44, -4456.36, 5703.02, 184.25, -28486.76, -0.00, 1.00, 0.33
183, 54921.63, 60718.73, -8937.32, -14934.92, -4411.50, 5735.77, 169.85, -28470.51, -0.00, 1.00, 0.33
184, 55001.61, 60782.68, -8870.89, -14859.42, -4334.36, 5811.86, 225.84, -28396.13, 0.00, 1.00, 0.32
185, 54996.27, 60743.01, -8847.56, -14871.24, -4355.26, 5799.50, 260.73, -28390.20, 0.00, 1.00, 0.32
186, 54930.17, 60674.14, -8900.29, -14936.33, -4422.54, 5732.08, 223.52, -28444.52, 0.00, 1.00, 0.32
187, 54945.91, 60694.33, -8915.78, -14916.37, -4394.84, 5755.22, 200.65, -28437.63, 0.00, 1.00, 0.32
188, 55014.88, 60780.61, -8853.44, -14834.61, -4312.97, 5836.11, 244.93, -28370.04, 0.00, 1.00, 0.32
189, 55030.71, 60786.86, -8813.45, -14824.12, -4312.99, 5843.89, 293.23, -28350.91, 0.01, 1.00, 0.33
190, 54972.26, 60723.50, -8867.12, -14895.58, -4392.07, 5770.62, 259.41, -28416.20, 0.01, 1.00, 0.33
191, 54964.50, 60702.22, -8907.75, -14906.18, -4394.49, 5760.00, 215.05, -28437.88, 0.01, 1.00, 0.33
192, 55035.78, 60786.82, -8861.37, -14833.38, -4313.37, 5831.03, 243.19, -28381.80, 0.01, 1.00, 0.33
193, 55054.94, 60795.36, -8815.62, -14809.95, -4297.77, 5855.71, 299.02, -28343.33, 0.01, 1.00, 0.33
194, 54989.20, 60711.94, -8851.69, -14875.40, -4372.18, 5791.02, 279.91, -28397.04, 0.02, 0.99, 0.33
195, 54961.66, 60673.38, -8896.60, -14900.50, -4390.35, 5761.05, 232.73, -28437.65, 0.02, 0.99, 0.33
196, 55020.43, 60740.89, -8855.83, -14828.04, -4308.66, 5832.71, 260.78, -28378.20, 0.02, 0.99, 0.33
197, 55070.14, 60793.23, -8786.13, -14775.91, -4264.24, 5888.70, 330.65, -28313.33, 0.02, 0.99, 0.33
198, 55019.98, 60725.13, -8821.32, -14845.38, -4342.88, 5818.23, 314.87, -28367.56, 0.02, 0.99, 0.33
199, 54982.16, 60679.87, -8880.39, -14888.74, -4381.57, 5770.08, 257.36, -28422.05, 0.02, 1.00, 0.33
200, 55039.25, 60741.20, -8850.04, -14824.26, -4304.68, 5833.25, 272.42, -28372.43, 0.02, 1.00, 0.33
201, 55086.77, 60779.04, -8791.43, -14774.99, -4259.28, 5886.06, 335.01, -28311.86, 0.02, 1.00, 0.33
202, 55050.29, 60733.24, -8808.42, -14823.99, -4323.59, 5839.46, 332.73, -28346.32, 0.02, 1.00, 0.33
203, 54992.53, 60681.83, -8870.07, -14878.97, -4380.49, 5784.16, 270.90, -28409.54, 0.02, 1.00, 0.33
204, 55031.91, 60734.36, -8866.67, -14839.68, -4326.65, 5821.67, 260.33, -28390.34, 0.02, 1.00, 0.33
205, 55090.05, 60806.31, -8798.56, -14768.78, -4257.76, 5892.01, 323.63, -28322.34, 0.03, 0.99, 0.33
206, 55066.23, 60763.46, -8792.89, -14802.62, -4304.52, 5860.92, 339.93, -28341.54, 0.03, 0.99, 0.33
207, 54993.09, 60681.48, -8862.85, -14876.58, -4379.40, 5791.54, 282.79, -28403.68, 0.03, 0.99, 0.33
208, 55028.52, 60704.30, -8867.72, -14843.70, -4334.49, 5822.83, 266.39, -28391.23, 0.03, 0.99, 0.33
209, 55109.66, 60778.50, -8808.08, -14776.04, -4266.55, 5887.49, 311.27, -28334.12, 0.03, 0.99, 0.33
210, 55109.14, 60770.86, -8788.01, -14783.49, -4288.90, 5882.33, 344.02, -28322.95, 0.04, 1.00, 0.33
211, 55032.96, 60687.62, -8843.47, -14848.35, -4361.56, 5817.04, 305.28, -28378.27, 0.04, 1.00, 0.33
212, 55038.84, 60714.96, -8864.05, -14834.94, -4338.85, 5822.90, 267.80, -28390.45, 0.04, 1.00, 0.33
213, 55099.15, 60783.80, -8803.41, -14758.34, -4255.62, 5896.64, 313.55, -28330.30, 0.04, 1.00, 0.33
214, 55092.11, 60767.15, -8775.45, -14762.25, -4266.41, 5892.99, 355.59, -28317.85, 0.04, 1.00, 0.33
215, 55034.87, 60686.66, -8828.51, -14836.51, -4345.72, 5822.16, 320.43, -28378.04, 0.03, 1.00, 0.34
216, 55006.43, 60673.43, -8879.12, -14860.40, -4357.94, 5801.69, 269.63, -28407.17, 0.03, 1.00, 0.34
217, 55068.28, 60755.57, -8830.44, -14787.04, -4275.75, 5872.00, 295.45, -28349.52, 0.03, 1.00, 0.34
218, 55111.87, 60777.12, -8781.13, -14764.38, -4262.50, 5893.77, 345.74, -28317.42, 0.03, 1.00, 0.34
219, 55064.66, 60701.03, -8820.49, -14831.03, -4339.90, 5830.41, 321.73, -28374.02, 0.03, 1.00, 0.34
220, 55013.92, 60669.41, -8873.35, -14863.60, -4359.91, 5799.96, 279.31, -28410.01, 0.03, 0.99, 0.34
221, 55064.48, 60736.50, -8840.34, -14796.12, -4283.11, 5871.09, 298.35, -28350.10, 0.03, 0.99, 0.34
222, 55118.93, 60792.90, -8781.98, -14756.71, -4247.55, 5911.25, 355.15, -28302.45, 0.03, 0.99, 0.34
223, 55061.96, 60726.00, -8813.43, -14823.25, -4321.87, 5843.55, 340.22, -28358.69, 0.03, 0.99, 0.34
224, 55003.48, 60656.22, -8878.81, -14873.07, -4372.69, 5792.23, 278.15, -28418.28, 0.03, 0.99, 0.34
225, 55049.59, 60717.57, -8859.90, -14814.56, -4303.63, 5849.63, 280.83, -28375.36, 0.03, 0.99, 0.34
226, 55107.40, 60778.62, -8791.92, -14754.01, -4241.82, 5909.71, 346.09, -28315.39, 0.03, 0.99, 0.34
227, 55080.22, 60735.01, -8799.41, -14798.51, -4299.29, 5868.14, 351.79, -28340.47, 0.03, 0.99, 0.34
228, 55044.34, 60689.21, -8864.57, -14860.27, -4360.91, 5809.31, 300.83, -28393.20, 0.03, 0.99, 0.34
229, 55059.92, 60726.76, -8872.17, -14831.08, -4320.75, 5832.35, 274.12, -28389.55, 0.03, 0.99, 0.34
230, 55103.62, 60791.87, -8806.39, -14761.56, -4253.36, 5898.47, 325.66, -28329.18, 0.03, 0.99, 0.34
231, 55065.40, 60743.19, -8810.14, -14799.00, -4302.49, 5861.70, 338.47, -28353.14, 0.03, 0.99, 0.33
232, 55032.56, 60681.95, -8875.92, -14867.84, -4372.81, 5794.69, 287.64, -28417.92, 0.03, 0.99, 0.33
233, 55063.61, 60702.66, -8890.23, -14847.57, -4339.97, 5818.11, 269.11, -28398.70, 0.03, 0.99, 0.33
234, 55109.88, 60759.66, -8821.47, -14767.35, -4256.58, 5896.95, 323.09, -28321.51, 0.03, 0.99, 0.33
235, 55097.00, 60752.69, -8803.52, -14783.80, -4285.21, 5879.60, 351.55, -28328.42, 0.03, 0.99, 0.33
236, 55047.96, 60695.47, -8850.06, -14843.55, -4350.23, 5821.94, 321.64, -28377.93, 0.04, 0.99, 0.32
237, 55033.21, 60690.01, -8878.43, -14841.42, -4337.51, 5821.27, 288.47, -28386.45, 0.04, 0.99, 0.32
238, 55099.71, 60765.43, -8826.70, -14769.18, -4262.25, 5888.16, 321.22, -28332.24, 0.04, 0.99, 0.32
239, 55117.19, 60766.86, -8787.52, -14758.32, -4261.43, 5895.25, 360.47, -28320.93, 0.04, 0.99, 0.32
240, 55060.68, 60695.27, -8834.35, -14829.85, -4341.09, 5827.30, 327.72, -28379.76, 0.04, 0.99, 0.32
241, 55048.61, 60690.84, -8875.74, -14847.79, -4350.19, 5810.85, 284.40, -28402.49, 0.04, 1.00, 0.33
242, 55098.46, 60764.38, -8832.00, -14780.72, -4273.05, 5873.19, 304.12, -28358.06, 0.04, 1.00, 0.33
243, 55118.02, 60787.82, -8784.95, -14756.78, -4257.63, 5901.35, 353.45, -28315.12, 0.04, 1.00, 0.33
244, 55066.07, 60707.96, -8827.20, -14826.20, -4334.65, 5840.13, 337.89, -28352.09, 0.04, 1.00, 0.33
245, 55025.43, 60682.41, -8878.49, -14862.72, -4362.48, 5800.70, 282.10, -28395.12, 0.04, 1.00, 0.33
246, 55074.47, 60741.33, -8840.16, -14796.72, -4289.68, 5858.62, 291.67, -28355.91, 0.03, 1.01, 0.33
247, 55127.67, 60790.17, -8772.17, -14746.18, -4244.06, 5908.01, 351.01, -28295.68, 0.03, 1.01, 0.33
248, 55105.16, 60748.78, -8786.81, -14796.12, -4302.80, 5861.43, 356.44, -28311.97, 0.03, 1.01, 0.33
249, 55050.85, 60676.29, -8855.36, -14852.26, -4354.95, 5804.08, 296.63, -28366.80, 0.03, 1.01, 0.33
250, 55087.57, 60720.81, -8838.15, -14796.88, -4286.19, 5857.23, 295.60, -28322.92, 0.03, 1.01, 0.33
251, 55140.01, 60785.68, -8767.74, -14733.73, -4221.06, 5924.31, 363.26, -28237.52, 0.04, 1.00, 0.34
252, 55113.86, 60740.35, -8776.32, -14779.84, -4276.25, 5881.06, 372.67, -28250.08, 0.04, 1.00, 0.34
253, 55059.14, 60687.18, -8838.71, -14841.94, -4338.23, 5818.16, 316.52, -28309.09, 0.04, 1.00, 0.34
254, 55072.04, 60734.67, -8838.66, -14808.79, -4290.42, 5845.65, 296.29, -28294.76, 0.04, 1.00, 0.34
255, 55136.41, 60788.23, -8773.17, -14741.53, -4223.52, 5913.78, 344.02, -28224.98, 0.04, 1.00, 0.34
0, 55132.52, 60761.94, -8758.29, -14762.37, -4255.95, 5894.58, 368.83, -28226.32, 0.04, 1.00, 0.34
1, 55060.70, 60690.84, -8816.20, -14829.73, -4324.91, 5822.14, 323.45, -28292.03, 0.04, 1.00, 0.34
2, 55059.99, 60708.27, -8836.85, -14815.50, -4302.35, 5832.51, 289.86, -28293.66, 0.04, 1.00, 0.34
3, 55140.54, 60815.09, -8771.36, -14735.63, -4220.70, 5912.93, 337.71, -28215.97, 0.04, 1.00, 0.34
4, 55146.04, 60776.80, -8748.27, -14745.83, -4242.38, 5909.73, 371.55, -28204.30, 0.04, 1.00, 0.34
5, 55089.02, 60681.65, -8814.66, -14828.66, -4328.12, 5825.71, 320.10, -28275.76, 0.04, 1.00, 0.34
6, 55084.51, 60690.82, -8838.26, -14821.73, -4307.65, 5827.73, 291.33, -28288.75, 0.04, 1.00, 0.33
7, 55138.62, 60776.80, -8785.58, -14748.89, -4227.59, 5900.84, 330.96, -28229.67, 0.04, 1.00, 0.33
8, 55151.39, 60787.36, -8750.66, -14741.78, -4231.54, 5914.03, 374.59, -28206.92, 0.04, 1.00, 0.33
9, 55081.20, 60702.71, -8798.47, -14813.33, -4311.85, 5844.06, 345.00, -28267.51, 0.04, 1.00, 0.33
10, 55046.13, 60686.19, -8841.21, -14831.46, -4322.36, 5819.30, 294.77, -28303.30, 0.04, 1.00, 0.33
11, 55110.82, 60748.44, -8799.01, -14761.29, -4242.76, 5889.04, 318.60, -28244.27, 0.03, 0.99, 0.33
12, 55147.72, 60764.18, -8751.02, -14739.32, -4225.69, 5912.68, 368.22, -28215.75, 0.03, 0.99, 0.33
13, 55109.48, 60711.09, -8783.65, -14799.47, -4297.03, 5859.17, 356.24, -28255.64, 0.03, 0.99, 0.33
14, 55070.70, 60684.45, -8843.71, -14843.95, -4332.91, 5810.81, 294.66, -28310.52, 0.03, 0.99, 0.33
15, 55128.59, 60753.85, -8815.75, -14780.25, -4260.24, 5871.20, 303.63, -28273.12, 0.03, 0.99, 0.33
16, 55190.39, 60788.23, -8756.61, -14732.71, -4217.86, 5924.33, 362.84, -28215.59, 0.04, 1.00, 0.34
17, 55126.13, 60735.01, -8771.03, -14781.72, -4279.49, 5877.01, 364.40, -28252.65, 0.04, 1.00, 0.34
18, 55052.08, 60683.06, -8839.24, -14840.35, -4337.07, 5816.42, 306.38, -28309.91, 0.04, 1.00, 0.34
19, 55105.32, 60745.51, -8820.27, -14782.30, -4271.89, 5869.99, 305.53, -28271.42, 0.04, 1.00, 0.34
20, 55162.58, 60789.61, -8751.87, -14720.08, -4213.13, 5926.65, 360.38, -28218.38, 0.04, 1.00, 0.34
21, 55136.54, 60737.31, -8756.97, -14758.54, -4260.71, 5887.40, 378.88, -28239.37, 0.03, 1.00, 0.33
22, 55090.92, 60674.48, -8823.19, -14823.77, -4326.56, 5823.52, 327.90, -28301.53, 0.03, 1.00, 0.33
23, 55116.65, 60707.65, -8830.30, -14796.09, -4290.77, 5847.91, 298.11, -28298.65, 0.03, 1.00, 0.33
24, 55157.13, 60771.80, -8773.75, -14733.75, -4230.78, 5911.41, 340.22, -28239.82, 0.03, 1.00, 0.33
25, 55141.57, 60761.52, -8759.87, -14757.87, -4264.20, 5890.71, 361.72, -28245.81, 0.03, 1.00, 0.33
26, 55090.21, 60703.91, -8814.34, -14821.69, -4329.91, 5831.10, 321.80, -28302.76, 0.03, 1.00, 0.34
27, 55102.08, 60704.41, -8838.08, -14814.13, -4305.28, 5837.45, 296.88, -28309.20, 0.03, 1.00, 0.34
28, 55156.35, 60774.70, -8775.90, -14737.78, -4220.48, 5910.78, 345.56, -28242.39, 0.03, 1.00, 0.34
29, 55156.35, 60781.72, -8737.34, -14734.07, -4228.97, 5912.89, 387.98, -28228.15, 0.03, 1.00, 0.34
30, 55085.58, 60724.64, -8801.13, -14819.47, -4321.40, 5828.53, 339.84, -28307.39, 0.03, 1.00, 0.34
31, 55063.21, 60706.87, -8844.34, -14830.99, -4324.37, 5818.25, 292.14, -28332.04, 0.03, 1.00, 0.34
32, 55115.27, 60749.80, -8795.88, -14758.36, -4246.00, 5892.17, 323.61, -28272.65, 0.04, 1.00, 0.34
33, 55141.77, 60776.43, -8750.13, -14738.87, -4233.33, 5911.28, 373.39, -28242.28, 0.04, 1.00, 0.34
34, 55087.46, 60708.36, -8791.70, -14809.86, -4312.12, 5837.69, 352.02, -28303.70, 0.04, 1.00, 0.34
35, 55064.62, 60685.34, -8845.23, -14839.01, -4335.99, 5804.70, 298.37, -28350.64, 0.04, 1.00, 0.34
36, 55128.25, 60745.89, -8805.83, -14767.44, -4257.65, 5879.38, 318.91, -28287.45, 0.04, 1.00, 0.34
37, 55163.23, 60778.35, -8749.84, -14731.14, -4228.70, 5918.14, 375.93, -28237.72, 0.04, 1.00, 0.35
38, 55112.05, 60722.40, -8778.71, -14794.66, -4298.58, 5855.44, 364.53, -28286.98, 0.04, 1.00, 0.35
39, 55077.22, 60678.93, -8842.95, -14846.18, -4342.30, 5802.36, 302.40, -28345.41, 0.04, 1.00, 0.35
40, 55125.34, 60737.80, -8822.14, -14788.41, -4269.94, 5856.87, 308.61, -28303.50, 0.04, 1.00, 0.35
41, 55153.44, 60794.24, -8759.85, -14734.18, -4222.71, 5914.43, 367.95, -28244.29, 0.04, 1.00, 0.35
42, 55134.29, 60757.11, -8775.29, -14781.70, -4283.94, 5870.46, 368.27, -28276.83, 0.03, 0.99, 0.34
43, 55060.86, 60689.54, -8842.84, -14842.76, -4342.88, 5809.80, 308.10, -28340.07, 0.03, 0.99, 0.34
44, 55065.11, 60712.79, -8848.21, -14811.34, -4302.20, 5837.90, 286.86, -28330.77, 0.03, 0.99, 0.34
45, 55129.23, 60769.92, -8783.56, -14747.81, -4238.56, 5903.77, 343.84, -28263.80, 0.03, 0.99, 0.34
46, 55114.75, 60736.41, -8781.46, -14780.18, -4283.02, 5883.90, 369.18, -28259.24, 0.03, 0.99, 0.34
47, 55071.54, 60669.63, -8846.24, -14845.63, -4352.11, 5812.64, 314.89, -28326.50, 0.04, 0.99, 0.34
48, 55093.83, 60709.30, -8857.19, -14819.92, -4313.64, 5830.99, 292.09, -28327.68, 0.04, 0.99, 0.34
49, 55145.91, 60770.57, -8791.83, -14746.56, -4237.24, 5902.45, 345.20, -28267.85, 0.04, 0.99, 0.34
50, 55146.98, 60752.17, -8774.38, -14765.58, -4267.42, 5887.74, 376.69, -28272.43, 0.04, 0.99, 0.34
51, 55064.04, 60680.47, -8836.25, -14839.64, -4347.19, 5813.89, 325.78, -28343.66, 0.04, 0.99, 0.34
52, 55059.52, 60684.87, -8854.06, -14831.10, -4327.70, 5822.83, 288.99, -28348.47, 0.04, 0.99, 0.34
53, 55122.60, 60755.50, -8791.66, -14758.32, -4244.22, 5890.51, 332.06, -28291.99, 0.04, 0.99, 0.34
54, 55138.24, 60767.66, -8756.32, -14753.07, -4249.36, 5896.23, 374.84, -28272.94, 0.04, 0.99, 0.34
55, 55078.03, 60690.44, -8810.10, -14826.18, -4332.04, 5830.65, 338.09, -28326.52, 0.04, 0.99, 0.34
56, 55075.64, 60680.34, -8848.56, -14833.96, -4333.71, 5822.58, 289.63, -28352.00, 0.04, 0.99, 0.34
57, 55141.39, 60757.14, -8799.01, -14759.57, -4248.19, 5893.06, 322.33, -28294.33, 0.04, 0.99, 0.33
58, 55171.52, 60783.69, -8749.05, -14735.25, -4233.08, 5916.93, 370.61, -28259.87, 0.04, 0.99, 0.33
59, 55108.11, 60707.11, -8792.66, -14808.59, -4315.70, 5844.06, 339.32, -28319.70, 0.04, 0.99, 0.33
60, 55077.71, 60684.63, -8852.50, -14847.50, -4345.49, 5805.73, 284.29, -28359.67, 0.04, 0.99, 0.33
61, 55128.88, 60745.51, -8817.18, -14779.11, -4264.67, 5873.48, 310.15, -28306.14, 0.04, 0.99, 0.33
62, 55152.10, 60767.95, -8755.60, -14735.14, -4228.10, 5917.98, 372.76, -28253.92, 0.04, 0.99, 0.33
63, 55104.94, 60714.15, -8778.00, -14790.19, -4294.28, 5861.52, 366.48, -28297.06, 0.04, 1.00, 0.33
64, 55051.09, 60685.90, -8838.46, -14841.98, -4343.97, 5808.70, 305.97, -28348.67, 0.04, 1.00, 0.33
65, 55101.05, 60742.65, -8819.35, -14788.23, -4275.51, 5862.33, 309.93, -28308.53, 0.04, 1.00, 0.33
66, 55152.26, 60787.71, -8755.11, -14732.37, -4219.38, 5921.00, 374.91, -28247.37, 0.04, 1.00, 0.33
67, 55109.88, 60724.28, -8765.30, -14778.32, -4277.59, 5872.99, 381.50, -28285.24, 0.04, 1.00, 0.33
68, 55049.73, 60644.17, -8842.48, -14849.07, -4349.87, 5801.17, 315.05, -28356.36, 0.03, 1.00, 0.34
69, 55082.16, 60708.03, -8834.57, -14802.64, -4293.37, 5842.99, 305.10, -28332.60, 0.03, 1.00, 0.34
70, 55146.71, 60773.63, -8765.62, -14734.74, -4226.74, 5915.88, 367.91, -28259.11, 0.03, 1.00, 0.34
71, 55138.76, 60734.20, -8764.86, -14773.07, -4275.67, 5880.50, 382.19, -28275.65, 0.03, 1.00, 0.34
72, 55064.19, 60674.37, -8825.56, -14842.09, -4345.04, 5812.48, 329.60, -28334.34, 0.03, 1.00, 0.34
73, 55071.50, 60695.33, -8835.73, -14816.77, -4307.76, 5835.57, 304.63, -28328.71, 0.03, 1.00, 0.33
74, 55143.68, 60758.81, -8779.30, -14751.39, -4237.76, 5897.55, 348.06, -28276.63, 0.03, 1.00, 0.33
75, 55139.98, 60742.76, -8759.51, -14768.31, -4264.76, 5879.36, 374.08, -28282.55, 0.03, 1.00, 0.33
76, 55064.77, 60670.30, -8820.31, -14841.22, -4342.54, 5808.23, 324.84, -28346.66, 0.03, 1.00, 0.33
77, 55044.30, 60683.49, -8850.33, -14837.04, -4329.73, 5816.50, 288.40, -28350.73, 0.03, 1.00, 0.33
78, 55117.28, 60755.82, -8794.63, -14761.20, -4250.50, 5888.97, 325.80, -28291.94, 0.04, 0.99, 0.33
79, 55134.51, 60752.69, -8760.14, -14755.41, -4255.71, 5893.31, 366.59, -28278.13, 0.04, 0.99, 0.33
80, 55071.93, 60692.98, -8810.88, -14825.71, -4335.75, 5823.61, 334.05, -28335.55, 0.04, 0.99, 0.33
81, 55059.59, 60686.88, -8855.29, -14841.36, -4345.22, 5802.60, 284.31, -28367.58, 0.04, 0.99, 0.33
82, 55115.42, 60742.03, -8811.46, -14770.84, -4266.14, 5867.80, 309.15, -28317.04, 0.04, 0.99, 0.33
83, 55138.33, 60747.93, -8759.13, -14742.14, -4249.42, 5899.07, 360.60, -28276.45, 0.04, 1.00, 0.33
84, 55094.28, 60690.19, -8790.36, -14801.97, -4316.14, 5843.75, 351.84, -28314.56, 0.04, 1.00, 0.33
85, 55051.50, 60657.65, -8849.97, -14842.59, -4347.35, 5804.23, 300.36, -28359.47, 0.04, 1.00, 0.33
86, 55104.63, 60727.74, -8815.10, -14775.71, -4270.10, 5866.35, 312.97, -28316.55, 0.04, 1.00, 0.33
87, 55160.66, 60771.80, -8748.56, -14730.83, -4230.00, 5910.16, 373.03, -28264.05, 0.04, 1.00, 0.33
88, 55099.69, 60709.75, -8785.11, -14800.70, -4314.87, 5843.77, 351.46, -28316.48, 0.04, 1.00, 0.33
89, 55062.89, 60676.51, -8840.65, -14842.81, -4354.05, 5805.44, 302.82, -28361.72, 0.04, 1.00, 0.33
90, 55091.32, 60717.55, -8824.67, -14792.99, -4287.58, 5854.57, 310.13, -28322.70, 0.04, 1.00, 0.33
91, 55144.14, 60768.31, -8754.95, -14729.73, -4225.75, 5913.89, 369.92, -28266.78, 0.04, 1.00, 0.33
92, 55120.18, 60713.89, -8770.31, -14781.63, -4294.24, 5860.36, 364.96, -28313.24, 0.04, 1.00, 0.33
93, 55061.60, 60665.11, -8838.64, -14841.96, -4359.64, 5800.30, 307.52, -28373.68, 0.04, 1.00, 0.33
94, 55069.36, 60707.96, -8843.15, -14810.13, -4314.83, 5836.29, 292.79, -28345.41, 0.04, 1.00, 0.33
95, 55121.05, 60762.86, -8776.99, -14742.74, -4238.14, 5902.27, 351.73, -28280.39, 0.04, 1.00, 0.33
96, 55104.31, 60729.20, -8766.80, -14766.88, -4278.03, 5879.45, 375.98, -28293.11, 0.04, 1.00, 0.33
97, 55037.66, 60660.40, -8826.90, -14838.29, -4347.73, 5807.56, 326.78, -28356.49, 0.04, 1.00, 0.33
98, 55045.39, 60671.93, -8849.17, -14826.65, -4323.77, 5815.66, 294.06, -28365.46, 0.04, 1.00, 0.33
99, 55116.45, 60743.03, -8796.39, -14761.00, -4258.99, 5877.79, 325.02, -28318.41, 0.04, 1.00, 0.33
100, 55119.60, 60752.26, -8770.65, -14765.90, -4281.05, 5873.14, 354.41, -28312.02, 0.04, 1.00, 0.33
101, 55043.05, 60661.94, -8823.06, -14834.11, -4351.79, 5817.02, 321.28, -28348.43, 0.04, 1.00, 0.33
102, 55048.34, 60663.82, -8850.84, -14831.79, -4334.41, 5816.44, 292.90, -28363.07, 0.04, 1.00, 0.33
103, 55128.21, 60734.18, -8797.62, -14755.82, -4252.58, 5884.90, 330.16, -28304.93, 0.04, 1.00, 0.33
104, 55129.04, 60737.96, -8762.11, -14745.36, -4256.15, 5896.41, 374.46, -28279.81, 0.04, 1.00, 0.34
105, 55080.15, 60678.41, -8808.00, -14816.10, -4333.33, 5828.53, 341.87, -28341.32, 0.04, 1.00, 0.34
106, 55037.19, 60655.77, -8862.76, -14846.45, -4354.34, 5797.28, 287.69, -28384.90, 0.04, 1.00, 0.34
107, 55081.13, 60724.28, -8821.41, -14775.40, -4275.24, 5867.33, 313.39, -28330.30, 0.04, 1.00, 0.34
108, 55115.46, 60750.45, -8768.12, -14749.58, -4256.82, 5893.46, 364.58, -28297.11, 0.04, 1.00, 0.34
109, 55069.87, 60674.10, -8809.92, -14822.87, -4339.77, 5821.69, 338.76, -28357.43, 0.04, 1.00, 0.34
110, 55032.27, 60640.44, -8859.90, -14855.77, -4366.73, 5786.49, 281.68, -28400.04, 0.04, 1.00, 0.34
111, 55072.64, 60699.56, -8834.01, -14795.33, -4296.54, 5844.18, 290.04, -28356.79, 0.04, 1.00, 0.34
112, 55119.49, 60729.64, -8778.56, -14753.40, -4259.62, 5887.20, 351.01, -28306.96, 0.04, 1.00, 0.34
113, 55102.50, 60687.31, -8794.05, -14801.86, -4319.90, 5836.89, 349.74, -28345.43, 0.04, 1.00, 0.34
114, 55042.87, 60642.45, -8861.37, -14860.91, -4374.15, 5776.43, 289.08, -28411.73, 0.04, 1.00, 0.34
115, 55072.33, 60697.34, -8848.52, -14811.96, -4308.88, 5824.75, 287.15, -28380.99, 0.04, 1.00, 0.34
116, 55125.97, 60749.22, -8785.69, -14753.45, -4254.23, 5890.29, 345.27, -28310.14, 0.04, 1.00, 0.34
117, 55097.74, 60724.79, -8783.81, -14787.89, -4303.02, 5860.11, 360.11, -28323.53, 0.04, 1.00, 0.34
118, 55024.70, 60682.01, -8853.37, -14855.62, -4367.44, 5791.69, 305.30, -28395.34, 0.04, 1.00, 0.34
119, 55051.92, 60674.21, -8858.53, -14827.57, -4327.39, 5817.56, 285.05, -28385.48, 0.04, 1.00, 0.34
120, 55116.18, 60731.14, -8798.76, -14765.70, -4266.23, 5879.25, 331.45, -28329.00, 0.04, 1.00, 0.34
121, 55101.74, 60706.11, -8776.79, -14778.88, -4299.78, 5859.20, 357.72, -28339.13, 0.04, 1.00, 0.34
122, 55038.49, 60630.13, -8841.70, -14852.67, -4378.17, 5788.61, 307.67, -28399.48, 0.04, 1.00, 0.34
123, 55056.68, 60653.94, -8863.03, -14836.44, -4346.74, 5809.69, 285.90, -28384.19, 0.04, 1.00, 0.34
124, 55115.91, 60725.57, -8810.48, -14768.38, -4274.64, 5876.52, 327.41, -28326.12, 0.04, 1.00, 0.34
125, 55110.97, 60719.07, -8785.38, -14777.23, -4293.86, 5868.58, 357.69, -28324.82, 0.04, 1.00, 0.34
126, 55047.79, 60654.83, -8833.83, -14843.84, -4363.42, 5805.69, 327.05, -28379.65, 0.04, 1.00, 0.34
127, 55038.46, 60651.41, -8870.85, -14849.69, -4359.77, 5796.72, 286.10, -28405.65, 0.04, 1.00, 0.34
128, 55103.26, 60724.01, -8822.97, -14780.58, -4283.94, 5861.01, 311.14, -28357.97, 0.04, 1.00, 0.34
129, 55120.79, 60739.25, -8773.35, -14756.24, -4270.77, 5889.19, 365.63, -28315.93, 0.04, 1.00, 0.34
130, 55063.52, 60677.86, -8816.27, -14823.54, -4347.70, 5825.00, 342.67, -28367.02, 0.04, 0.99, 0.35
131, 55049.44, 60673.25, -8855.49, -14838.83, -4354.12, 5810.43, 306.13, -28389.44, 0.04, 0.99, 0.35
132, 55094.66, 60717.93, -8825.94, -14776.33, -4282.73, 5870.66, 323.03, -28340.51, 0.04, 0.99, 0.35
133, 55137.08, 60739.25, -8771.72, -14740.57, -4256.64, 5905.13, 373.03, -28298.13, 0.04, 0.99, 0.35
134, 55090.97, 60682.23, -8816.73, -14813.44, -4340.08, 5834.45, 349.58, -28355.69, 0.04, 0.99, 0.35
135, 55049.19, 60645.06, -8884.57, -14863.28, -4385.43, 5782.75, 286.42, -28415.82, 0.05, 0.99, 0.35
136, 55077.07, 60702.75, -8852.88, -14792.85, -4305.35, 5850.08, 304.61, -28365.82, 0.05, 0.99, 0.35
137, 55115.40, 60743.70, -8782.85, -14746.47, -4265.47, 5897.71, 360.40, -28310.85, 0.05, 0.99, 0.35
138, 55084.91, 60688.76, -8804.35, -14796.43, -4330.69, 5849.65, 356.71, -28344.20, 0.05, 0.99, 0.35
139, 55044.30, 60643.10, -8861.62, -14849.11, -4377.10, 5794.04, 302.33, -28406.59, 0.05, 0.99, 0.35
140, 55078.68, 60686.66, -8858.82, -14813.37, -4327.12, 5825.15, 288.76, -28397.33, 0.04, 0.99, 0.35
141, 55128.45, 60762.59, -8795.17, -14750.94, -4263.19, 5890.87, 348.66, -28329.43, 0.04, 0.99, 0.35
142, 55094.05, 60719.56, -8788.08, -14782.68, -4303.58, 5867.58, 374.03, -28326.70, 0.04, 0.99, 0.35
143, 55035.04, 60630.47, -8858.11, -14850.10, -4377.66, 5800.37, 315.63, -28392.39, 0.04, 0.99, 0.35
144, 55060.14, 60665.49, -8870.04, -14823.25, -4336.10, 5826.38, 297.93, -28382.49, 0.04, 0.99, 0.35
145, 55136.30, 60738.43, -8808.62, -14754.18, -4259.62, 5893.62, 353.58, -28318.74, 0.04, 0.99, 0.35
146, 55135.74, 60716.86, -8798.85, -14773.79, -4293.81, 5875.60, 374.97, -28324.13, 0.05, 1.00, 0.35
147, 55056.79, 60647.28, -8851.74, -14844.55, -4372.09, 5806.67, 324.59, -28388.41, 0.05, 1.00, 0.35
148, 55043.63, 60649.47, -8884.62, -14846.63, -4360.29, 5799.92, 282.26, -28405.74, 0.05, 1.00, 0.35
149, 55112.92, 60739.01, -8814.43, -14761.52, -4266.75, 5885.97, 334.94, -28328.02, 0.05, 1.00, 0.35
150, 55123.18, 60738.88, -8779.85, -14762.19, -4279.67, 5888.48, 375.42, -28313.65, 0.05, 1.00, 0.35
151, 55071.23, 60670.21, -8830.03, -14829.47, -4353.58, 5821.24, 341.02, -28370.42, 0.05, 0.99, 0.36
152, 55059.03, 60666.43, -8870.60, -14840.28, -4353.18, 5807.01, 297.14, -28398.05, 0.05, 0.99, 0.36
153, 55139.20, 60752.11, -8821.63, -14763.55, -4268.45, 5882.06, 327.90, -28338.46, 0.05, 0.99, 0.36
154, 55168.33, 60743.16, -8778.40, -14750.47, -4261.27, 5898.98, 374.21, -28312.93, 0.05, 0.99, 0.36
155, 55094.97, 60666.23, -8831.08, -14819.81, -4342.63, 5827.23, 347.10, -28373.64, 0.05, 0.99, 0.36
156, 55054.87, 60634.34, -8874.94, -14848.06, -4362.84, 5791.98, 289.66, -28420.00, 0.05, 0.99, 0.36
157, 55099.75, 60683.42, -8856.14, -14799.36, -4306.20, 5843.39, 292.94, -28386.63, 0.05, 0.99, 0.36
158, 55128.03, 60722.51, -8810.86, -14763.39, -4279.64, 5890.87, 348.44, -28331.21, 0.05, 0.99, 0.36
159, 55087.08, 60672.38, -8827.29, -14812.25, -4335.95, 5844.09, 343.75, -28364.70, 0.05, 0.99, 0.36
160, 55059.12, 60646.96, -8882.11, -14850.90, -4370.75, 5803.38, 294.37, -28415.30, 0.05, 0.99, 0.36
161, 55093.56, 60700.56, -8858.15, -14803.31, -4308.99, 5848.36, 300.12, -28379.52, 0.06, 0.98, 0.35
162, 55144.70, 60746.63, -8804.20, -14754.41, -4261.52, 5899.27, 350.32, -28329.94, 0.06, 0.98, 0.35
163, 55125.84, 60704.23, -8804.26, -14791.51, -4308.48, 5861.16, 358.54, -28358.35, 0.06, 0.98, 0.35
164, 55072.04, 60642.05, -8876.86, -14854.95, -4366.28, 5803.27, 306.49, -28412.13, 0.06, 0.98, 0.35
165, 55086.16, 60664.84, -8901.58, -14830.45, -4333.94, 5830.30, 282.86, -28403.90, 0.06, 0.98, 0.35
166, 55140.70, 60728.10, -8820.83, -14764.31, -4269.65, 5889.08, 331.45, -28350.28, 0.06, 0.99, 0.36
167, 55131.38, 60715.23, -8799.88, -14784.47, -4297.99, 5870.91, 358.90, -28350.04, 0.06, 0.99, 0.36
168, 55084.91, 60656.62, -8856.03, -14842.79, -4351.42, 5813.24, 318.60, -28404.53, 0.06, 0.99, 0.36
169, 55087.84, 60671.08, -8878.47, -14831.21, -4331.10, 5821.80, 285.86, -28409.78, 0.06, 0.99, 0.36
170, 55136.70, 60732.62, -8827.02, -14765.34, -4266.43, 5883.45, 331.68, -28352.05, 0.06, 0.99, 0.36
171, 55121.48, 60709.30, -8819.28, -14782.19, -4295.07, 5870.26, 357.07, -28355.47, 0.06, 0.99, 0.36
172, 55061.49, 60650.03, -8873.49, -14845.51, -4365.12, 5803.94, 315.25, -28416.87, 0.06, 0.99, 0.36
173, 55077.31, 60665.05, -8880.62, -14828.75, -4344.73, 5814.47, 289.03, -28418.25, 0.06, 0.99, 0.36
174, 55135.14, 60728.32, -8825.63, -14760.13, -4275.67, 5879.63, 323.25, -28359.71, 0.06, 0.99, 0.36
175, 55150.38, 60747.19, -8790.07, -14749.16, -4273.63, 5894.85, 367.57, -28329.70, 0.06, 0.99, 0.36
176, 55102.79, 60688.09, -8839.47, -14813.64, -4345.67, 5834.21, 340.64, -28382.80, 0.06, 0.99, 0.36
177, 55077.38, 60659.57, -8886.00, -14834.67, -4359.01, 5807.30, 291.91, -28420.82, 0.06, 1.00, 0.36
178, 55140.46, 60729.38, -8839.58, -14768.83, -4282.88, 5866.62, 312.79, -28382.78, 0.06, 1.00, 0.36
179, 55164.55, 60749.13, -8792.51, -14747.66, -4270.46, 5888.70, 356.49, -28353.28, 0.06, 1.00, 0.36
180, 55111.80, 60686.41, -8844.07, -14814.60, -4346.48, 5825.94, 330.16, -28394.13, 0.06, 1.00, 0.36
181, 55068.91, 60663.66, -8881.91, -14836.22, -4361.70, 5805.80, 282.44, -28427.21, 0.06, 1.00, 0.36
182, 55111.49, 60721.39, -8852.09, -14780.54, -4292.38, 5854.61, 292.67, -28392.57, 0.06, 1.00, 0.35
183, 55159.30, 60770.99, -8800.40, -14734.60, -4250.16, 5902.69, 355.53, -28337.18, 0.06, 1.00, 0.35
184, 55127.94, 60721.24, -8806.77, -14786.19, -4312.63, 5856.02, 353.45, -28369.24, 0.06, 1.00, 0.35
185, 55092.00, 60671.04, -8871.99, -14838.67, -4361.29, 5804.32, 290.93, -28427.21, 0.06, 1.00, 0.35
186, 55124.99, 60706.15, -8872.44, -14808.16, -4319.30, 5835.64, 272.60, -28412.29, 0.06, 1.00, 0.35
187, 55146.69, 60725.04, -8840.63, -14779.17, -4293.37, 5863.98, 302.02, -28382.00, 0.06, 1.00, 0.35
188, 55096.91, 60670.12, -8852.43, -14824.21, -4349.83, 5820.04, 303.38, -28410.18, 0.06, 1.00, 0.35
189, 55030.13, 60611.47, -8915.06, -14888.25, -4413.11, 5754.70, 249.65, -28473.86, 0.06, 1.00, 0.35
190, 55024.25, 60612.96, -8937.17, -14871.87, -4393.59, 5764.25, 213.57, -28479.34, 0.06, 1.00, 0.35
191, 55058.78, 60662.48, -8885.18, -14822.56, -4344.22, 5810.69, 249.60, -28436.58, 0.06, 1.00, 0.35
192, 55039.02, 60626.63, -8884.91, -14848.62, -4383.60, 5788.74, 265.58, -28448.83, 0.06, 1.00, 0.35
193, 54992.20, 60569.47, -8945.03, -14915.12, -4455.44, 5722.69, 212.77, -28515.73, 0.06, 1.00, 0.35
194, 55017.86, 60592.09, -8965.15, -14903.83, -4432.98, 5730.27, 181.09, -28524.63, 0.06, 1.00, 0.35
195, 55074.00, 60653.16, -8916.20, -14846.41, -4371.76, 5785.15, 214.17, -28474.91, 0.06, 1.00, 0.35
196, 55063.32, 60644.89, -8895.48, -14853.38, -4384.21, 5778.80, 246.25, -28463.36, 0.06, 1.00, 0.35
197, 55015.71, 60580.00, -8935.11, -14911.61, -4447.04, 5724.68, 218.18, -28510.12, 0.06, 1.00, 0.35
198, 55005.00, 60573.76, -8964.59, -14915.45, -4440.33, 5719.41, 181.99, -28530.55, 0.06, 1.00, 0.35
199, 55053.75, 60641.82, -8913.83, -14848.69, -4367.73, 5781.73, 220.84, -28475.38, 0.06, 1.00, 0.35
200, 55077.07, 60648.42, -8883.21, -14833.94, -4362.30, 5796.86, 267.75, -28442.46, 0.06, 1.00, 0.35
201, 55048.12, 60598.97, -8904.64, -14882.82, -4417.44, 5750.12, 256.02, -28473.98, 0.06, 1.00, 0.35
202, 55023.69, 60586.73, -8950.84, -14898.49, -4427.19, 5738.18, 220.05, -28495.52, 0.07, 1.01, 0.35
203, 55078.72, 60656.08, -8920.09, -14832.80, -4359.13, 5803.88, 244.82, -28449.39, 0.07, 1.01, 0.35
204, 55108.96, 60683.00, -8865.28, -14804.48, -4336.93, 5830.07, 292.16, -28420.89, 0.07, 1.01, 0.35
205, 55060.70, 60633.11, -8895.32, -14860.87, -4396.23, 5777.17, 282.62, -28457.66, 0.07, 1.01, 0.35
206, 55025.72, 60588.47, -8947.20, -14895.02, -4425.85, 5749.11, 238.67, -28489.18, 0.07, 1.01, 0.35
207, 55067.32, 60638.18, -8921.70, -14833.53, -4351.79, 5810.40, 255.79, -28438.68, 0.07, 1.01, 0.35
208, 55118.30, 60678.30, -8871.94, -14793.23, -4315.32, 5849.03, 303.34, -28403.46, 0.06, 1.00, 0.35
209, 55101.00, 60636.55, -8889.42, -14845.92, -4372.72, 5790.62, 291.29, -28460.54, 0.06, 1.00, 0.35
210, 55041.23, 60588.71, -8956.59, -14897.48, -4427.68, 5735.50, 230.76, -28521.63, 0.06, 1.00, 0.35
211, 55058.83, 60626.00, -8956.37, -14859.98, -4381.32, 5774.95, 220.14, -28493.91, 0.06, 1.00, 0.35
212, 55100.60, 60674.43, -8894.67, -14806.80, -4332.71, 5833.89, 268.49, -28432.96, 0.06, 1.00, 0.35
213, 55068.75, 60648.21, -8901.89, -14837.36, -4369.03, 5807.23, 278.48, -28444.85, 0.06, 0.98, 0.34
214, 55028.72, 60603.91, -8957.60, -14887.80, -4412.06, 5755.71, 238.29, -28498.88, 0.06, 0.98, 0.34
215, 55053.30, 60627.50, -8946.55, -14858.59, -4377.88, 5775.42, 220.72, -28501.33, 0.06, 0.98, 0.34
216, 55096.69, 60673.09, -8909.65, -14805.04, -4326.90, 5827.12, 258.18, -28456.07, 0.06, 0.98, 0.34
217, 55070.41, 60645.06, -8920.38, -14842.54, -4370.12, 5792.99, 262.99, -28478.67, 0.06, 0.98, 0.34
218, 55029.52, 60595.11, -8968.21, -14894.24, -4419.52, 5746.68, 230.85, -28521.61, 0.04, 0.96, 0.33
219, 55026.33, 60597.01, -8990.68, -14888.99, -4406.80, 5752.49, 202.02, -28529.25, 0.04, 0.96, 0.33
220, 55074.47, 60653.69, -8937.59, -14830.09, -4345.76, 5804.05, 242.02, -28477.78, 0.04, 0.96, 0.33
221, 55074.96, 60647.30, -8918.50, -14838.36, -4364.65, 5795.63, 261.65, -28472.46, 0.04, 0.96, 0.33
222, 55028.59, 60588.34, -8967.32, -14896.05, -4429.58, 5739.35, 222.78, -28522.63, 0.04, 0.96, 0.33
223, 55036.86, 60581.76, -9002.19, -14901.59, -4428.08, 5731.57, 187.06, -28543.89, 0.03, 0.97, 0.33
224, 55085.00, 60648.86, -8914.66, -14834.74, -4347.55, 5796.12, 224.70, -28490.11, 0.03, 0.97, 0.33
225, 55077.56, 60650.03, -8895.39, -14832.48, -4351.79, 5802.69, 252.66, -28475.59, 0.03, 0.97, 0.33
226, 55039.13, 60603.98, -8910.50, -14867.67, -4408.68, 5759.35, 224.70, -28518.14, 0.03, 0.97, 0.33
227, 55020.52, 60593.48, -8942.28, -14886.19, -4421.73, 5739.59, 183.22, -28544.99, 0.03, 0.97, 0.33
228, 55040.68, 60630.80, -8925.72, -14849.96, -4377.81, 5774.08, 189.43, -28519.57, 0.03, 1.00, 0.32
229, 55065.13, 60649.13, -8888.75, -14828.55, -4362.21, 5794.38, 227.83, -28492.39, 0.03, 1.00, 0.32
230, 55004.27, 60593.72, -8922.06, -14880.83, -4423.57, 5739.95, 205.93, -28533.95, 0.03, 1.00, 0.32
231, 54962.74, 60569.00, -8980.84, -14922.09, -4456.71, 5698.76, 158.63, -28572.19, 0.03, 1.00, 0.32
232, 55016.71, 60615.38, -8936.41, -14864.47, -4389.99, 5755.89, 180.65, -28513.22, 0.03, 1.00, 0.32
233, 55042.69, 60631.65, -8895.97, -14841.04, -4373.79, 5774.06, 211.96, -28481.69, 0.03, 1.00, 0.32
234, 55011.57, 60587.33, -8920.31, -14886.08, -4426.56, 5729.02, 202.80, -28507.57, 0.04, 1.01, 0.32
235, 54953.89, 60536.12, -8979.68, -14938.34, -4474.57, 5674.24, 151.86, -28558.29, 0.04, 1.01, 0.32
236, 54964.86, 60553.64, -8987.28, -14920.95, -4450.50, 5687.09, 123.25, -28548.70, 0.04, 1.01, 0.32
237, 55021.34, 60595.55, -8938.62, -14873.72, -4405.28, 5732.28, 170.14, -28477.51, 0.04, 1.01, 0.32
238, 54986.96, 60566.54, -8952.50, -14906.04, -4444.17, 5706.42, 181.07, -28484.10, 0.04, 1.01, 0.32
239, 54936.52, 60513.17, -9000.26, -14948.22, -4486.89, 5676.52, 144.82, -28517.56, 0.04, 1.00, 0.32
240, 54957.91, 60543.90, -9007.22, -14927.46, -4454.37, 5692.90, 132.28, -28501.98, 0.04, 1.00, 0.32
241, 55013.63, 60582.30, -8968.46, -14884.00, -4414.74, 5732.06, 165.98, -28455.42, 0.04, 1.00, 0.32
242, 54978.32, 60548.23, -8972.50, -14915.81, -4452.22, 5697.68, 163.01, -28480.12, 0.04, 1.00, 0.32
243, 54920.31, 60512.90, -9015.00, -14960.51, -4496.75, 5653.05, 120.25, -28525.41, 0.04, 1.00, 0.32
244, 54924.43, 60525.71, -9016.89, -14946.79, -4465.10, 5668.36, 111.51, -28513.72, 0.03, 0.98, 0.31
245, 54963.56, 60545.38, -8995.15, -14925.35, -4440.20, 5691.40, 125.06, -28493.91, 0.03, 0.98, 0.31
246, 54944.68, 60519.85, -8993.25, -14945.74, -4469.70, 5674.35, 131.16, -28507.37, 0.03, 0.98, 0.31
247, 54910.72, 60485.36, -9011.80, -14976.21, -4501.35, 5644.62, 112.00, -28538.26, 0.03, 0.98, 0.31
248, 54907.50, 60490.52, -9034.26, -14975.06, -4495.52, 5645.22, 86.46, -28546.24, 0.03, 0.98, 0.31
249, 54932.47, 60515.82, -9016.67, -14947.66, -4464.47, 5670.28, 101.01, -28524.38, 0.02, 0.96, 0.32
250, 54939.38, 60509.43, -9002.97, -14954.95, -4478.78, 5663.22, 116.83, -28525.09, 0.02, 0.96, 0.32
251, 54900.62, 60463.68, -9030.71, -14998.22, -4527.81, 5617.06, 93.68, -28565.95, 0.02, 0.96, 0.32
252, 54858.69, 60440.81, -9079.46, -15025.89, -4559.02, 5581.86, 33.55, -28618.10, 0.02, 0.96, 0.32
253, 54861.82, 60461.27, -9072.77, -15010.83, -4534.14, 5589.46, 20.27, -28623.33, 0.02, 0.96, 0.32
254, 54825.05, 60424.61, -9088.15, -15046.81, -4569.52, 5564.56, 16.61, -28634.64, 0.02, 0.98, 0.31
255, 54743.06, 60347.34, -9149.49, -15118.92, -4654.10, 5498.98, -27.63, -28682.07, 0.02, 0.98, 0.31
0, 54731.95, 60343.70, -9153.02, -15117.67, -4653.01, 5488.90, -53.38, -28700.22, 0.02, 0.98, 0.31
1, 54786.49, 60396.82, -9120.34, -15070.19, -4596.86, 5535.48, -32.34, -28662.58, 0.02, 0.98, 0.31
2, 54814.93, 60418.93, -9077.42, -15039.08, -4569.79, 5565.96, 14.66, -28631.35, 0.02, 0.98, 0.31
3, 54800.17, 60400.07, -9067.03, -15043.86, -4581.91, 5552.15, 38.04, -28635.36, 0.02, 1.01, 0.32
4, 54804.55, 60408.74, -9064.19, -15037.11, -4573.46, 5553.72, 36.39, -28631.06, 0.02, 1.01, 0.32
5, 54837.30, 60453.20, -9048.34, -14995.83, -4525.40, 5613.66, 52.59, -28588.53, 0.02, 1.01, 0.32
6, 54854.96, 60466.79, -9034.62, -14987.47, -4526.43, 5619.16, 61.78, -28590.47, 0.02, 1.01, 0.32
7, 54846.62, 60433.80, -9026.39, -15016.84, -4557.05, 5592.12, 65.96, -28600.44, 0.02, 1.01, 0.32
8, 54821.59, 60406.17, -9062.04, -15042.86, -4574.98, 5569.38, 45.89, -28621.01, 0.02, 1.01, 0.32
9, 54830.21, 60435.18, -9061.44, -15013.71, -4547.73, 5594.08, 35.83, -28610.95, 0.01, 1.01, 0.32
10, 54851.13, 60451.41, -9033.73, -14993.53, -4525.87, 5616.43, 51.36, -28594.03, 0.01, 1.01, 0.32
11, 54827.06, 60422.08, -9046.22, -15026.23, -4555.55, 5584.67, 51.65, -28620.00, 0.01, 1.01, 0.32
12, 54788.06, 60393.50, -9075.01, -15065.14, -4598.47, 5539.34, 18.40, -28663.14, 0.01, 1.01, 0.32
13, 54813.18, 60422.15, -9078.18, -15045.96, -4572.54, 5564.80, 9.99, -28647.34, 0.01, 1.01, 0.32
14, 54846.33, 60450.07, -9039.76, -15007.79, -4532.64, 5604.63, 34.44, -28613.21, 0.01, 1.00, 0.32
15, 54829.83, 60427.96, -9033.41, -15018.27, -4556.38, 5591.38, 44.55, -28620.49, 0.01, 1.00, 0.32
16, 54782.49, 60371.59, -9074.90, -15067.78, -4607.14, 5539.83, 11.27, -28667.86, 0.01, 1.00, 0.32
17, 54797.45, 60383.19, -9094.03, -15055.78, -4593.19, 5550.59, -2.37, -28666.71, 0.01, 1.00, 0.32
18, 54847.80, 60437.50, -9059.92, -15008.06, -4535.75, 5600.03, 27.25, -28624.13, 0.01, 1.00, 0.32
19, 54853.05, 60440.25, -9025.28, -15011.21, -4551.69, 5600.16, 49.93, -28616.87, 0.01, 1.00, 0.32
20, 54817.23, 60401.25, -9055.50, -15060.18, -4608.48, 5547.81, 22.53, -28664.77, 0.01, 1.00, 0.32
21, 54780.26, 60381.34, -9100.29, -15072.32, -4605.85, 5532.44, -9.45, -28686.25, 0.01, 1.00, 0.32
22, 54797.29, 60399.30, -9089.20, -15032.82, -4566.10, 5575.82, 1.88, -28652.05, 0.01, 1.00, 0.32
23, 54793.49, 60392.13, -9075.79, -15035.21, -4578.69, 5573.38, 16.18, -28650.02, 0.01, 1.00, 0.32
24, 54747.24, 60340.59, -9086.07, -15085.26, -4638.48, 5520.75, -8.69, -28694.19, 0.01, 1.00, 0.32
25, 54709.27, 60302.39, -9141.33, -15120.69, -4667.22, 5482.57, -56.80, -28733.93, 0.01, 1.00, 0.32
26, 54705.11, 60308.09, -9169.71, -15124.15, -4668.77, 5476.49, -89.32, -28750.71, 0.01, 1.00, 0.32
27, 54709.83, 60308.11, -9172.02, -15125.65, -4684.52, 5473.34, -83.35, -28754.22, 0.01, 1.00, 0.32
28, 54681.37, 60255.07, -9177.98, -15164.67, -4721.14, 5433.04, -93.10, -28782.65, 0.01, 1.00, 0.32
29, 54647.18, 60208.42, -9201.07, -15190.16, -4731.64, 5412.27, -115.40, -28801.61, 0.01, 1.00, 0.31
30, 54656.45, 60218.57, -9225.37, -15184.61, -4712.46, 5418.80, -138.18, -28807.51, 0.01, 1.00, 0.31
31, 54663.11, 60217.88, -9219.22, -15179.43, -4714.97, 5420.68, -135.21, -28808.51, 0.01, 1.00, 0.31
32, 54643.84, 60193.49, -9210.71, -15197.20, -4726.54, 5401.16, -119.89, -28819.49, 0.01, 1.00, 0.31
33, 54627.17, 60168.91, -9244.55, -15223.24, -4767.63, 5377.85, -153.87, -28848.32, 0.01, 1.00, 0.31
34, 54672.54, 60214.82, -9227.45, -15181.71, -4726.88, 5421.17, -150.70, -28818.17, 0.01, 1.00, 0.31
35, 54745.59, 60275.68, -9168.28, -15122.21, -4655.91, 5484.98, -91.22, -28755.54, 0.01, 1.00, 0.31
36, 54746.44, 60274.34, -9151.63, -15125.89, -4674.44, 5484.38, -67.52, -28751.92, 0.01, 1.00, 0.31
37, 54707.14, 60257.77, -9160.21, -15138.25, -4687.25, 5465.87, -68.82, -28771.79, 0.01, 1.00, 0.31
38, 54725.92, 60295.91, -9146.42, -15104.84, -4641.09, 5492.90, -51.54, -28759.41, 0.01, 1.00, 0.31
39, 54753.73, 60327.54, -9130.15, -15072.63, -4611.54, 5525.51, -31.92, -28730.91, 0.01, 1.00, 0.31
40, 54761.21, 60316.61, -9110.68, -15075.98, -4618.85, 5530.54, -3.84, -28704.71, 0.01, 0.99, 0.31
41, 54732.00, 60280.39, -9131.13, -15103.79, -4644.36, 5504.92, -11.31, -28721.52, 0.01, 0.99, 0.31
42, 54746.98, 60297.36, -9139.65, -15088.70, -4633.56, 5517.24, -28.30, -28718.08, 0.01, 0.99, 0.31
43, 54803.52, 60349.35, -9098.34, -15034.74, -4561.72, 5570.79, 6.48, -28669.17, 0.01, 0.99, 0.31
44, 54796.28, 60330.75, -9089.85, -15043.55, -4583.20, 5566.01, 18.51, -28671.03, 0.01, 0.99, 0.31
45, 54754.38, 60292.60, -9123.04, -15084.72, -4640.58, 5526.67, -9.07, -28712.00, 0.01, 0.98, 0.30
46, 54770.49, 60308.40, -9114.86, -15064.56, -4609.31, 5547.41, -8.85, -28703.15, 0.01, 0.98, 0.30
47, 54822.14, 60354.80, -9069.71, -15016.21, -4558.88, 5594.26, 22.60, -28660.88, 0.01, 0.98, 0.30
48, 54845.57, 60374.99, -9037.23, -14999.45, -4531.41, 5607.25, 60.35, -28640.32, 0.01, 0.98, 0.30
49, 54828.52, 60350.89, -9039.58, -15023.08, -4571.76, 5582.86, 52.86, -28653.91, 0.01, 0.98, 0.30
50, 54838.62, 60356.52, -9059.38, -15021.80, -4570.19, 5588.25, 33.19, -28649.57, 0.00, 1.00, 0.30
51, 54865.11, 60411.36, -9016.04, -14971.18, -4515.07, 5632.48, 37.82, -28619.44, 0.00, 1.00, 0.30
52, 54874.47, 60427.89, -8942.75, -14948.00, -4482.58, 5648.38, 83.51, -28595.39, 0.00, 1.00, 0.30
53, 54847.27, 60403.06, -8952.75, -14974.98, -4505.20, 5621.98, 105.08, -28605.00, 0.00, 1.00, 0.30
54, 54824.20, 60383.88, -8972.55, -14986.67, -4517.33, 5607.78, 91.44, -28617.52, 0.00, 1.00, 0.30
55, 54849.86, 60412.36, -8964.32, -14957.27, -4490.91, 5634.29, 85.32, -28596.44, 0.00, 1.02, 0.30
56, 54865.98, 60433.84, -8939.63, -14935.21, -4476.67, 5655.53, 96.74, -28573.64, 0.00, 1.02, 0.30
57, 54836.63, 60400.98, -8928.34, -14960.56, -4511.54, 5627.03, 94.50, -28596.80, 0.00, 1.02, 0.30
58, 54803.50, 60373.56, -8943.58, -14986.40, -4532.08, 5595.71, 73.54, -28634.24, 0.00, 1.02, 0.30
59, 54818.39, 60400.20, -8945.01, -14957.41, -4503.23, 5628.77, 73.51, -28610.05, 0.00, 1.02, 0.30
60, 54845.12, 60432.45, -8923.98, -14926.03, -4483.89, 5663.71, 95.55, -28569.93, 0.01, 1.03, 0.31
61, 54839.20, 60427.38, -8889.65, -14923.41, -4476.41, 5668.47, 131.76, -28550.98, 0.01, 1.03, 0.31
62, 54799.39, 60390.61, -8939.51, -14963.73, -4526.09, 5626.45, 94.79, -28595.39, 0.01, 1.03, 0.31
63, 54831.35, 60421.90, -8899.57, -14936.11, -4460.72, 5649.58, 97.59, -28582.29, 0.01, 1.03, 0.31
64, 54851.36, 60459.07, -8888.15, -14901.62, -4439.03, 5687.65, 115.09, -28544.99, 0.01, 1.03, 0.31
65, 54836.56, 60454.09, -8878.58, -14910.67, -4455.35, 5681.01, 135.36, -28536.72, 0.01, 1.03, 0.31
66, 54811.75, 60426.46, -8905.18, -14937.20, -4490.09, 5658.30, 129.51, -28552.86, 0.01, 1.02, 0.31
67, 54809.45, 60425.05, -8942.75, -14941.34, -4489.68, 5646.52, 106.55, -28571.12, 0.01, 1.02, 0.31
68, 54847.25, 60447.54, -8925.77, -14909.84, -4452.15, 5674.88, 114.33, -28559.25, 0.01, 1.02, 0.31
69, 54846.11, 60446.45, -8891.95, -14903.85, -4458.26, 5697.15, 138.20, -28543.80, 0.01, 1.02, 0.31
70, 54810.48, 60411.76, -8917.72, -14933.33, -4500.14, 5663.06, 126.87, -28561.77, 0.01, 1.02, 0.31
71, 54810.05, 60419.02, -8935.15, -14927.84, -4492.70, 5658.93, 111.83, -28575.86, 0.02, 1.01, 0.31
72, 54861.86, 60462.59, -8882.49, -14883.45, -4417.80, 5700.99, 131.23, -28546.53, 0.02, 1.01, 0.31
73, 54865.95, 60469.16, -8870.71, -14879.56, -4426.67, 5710.51, 150.74, -28522.14, 0.02, 1.01, 0.31
74, 54833.34, 60431.05, -8901.40, -14915.03, -4473.34, 5678.71, 138.67, -28542.86, 0.02, 1.01, 0.31
75, 54826.91, 60414.93, -8931.91, -14934.92, -4493.80, 5660.00, 109.30, -28566.74, 0.02, 1.01, 0.31
76, 54824.58, 60440.70, -8908.98, -14909.37, -4453.63, 5685.70, 108.43, -28554.40, 0.01, 1.01, 0.30
77, 54838.24, 60457.36, -8870.27, -14880.76, -4419.25, 5712.17, 146.49, -28525.88, 0.01, 1.01, 0.30
78, 54826.37, 60435.18, -8863.23, -14894.22, -4457.52, 5694.62, 149.96, -28539.31, 0.01, 1.01, 0.30
79, 54797.22, 60416.16, -8878.87, -14916.12, -4472.45, 5672.11, 129.28, -28563.72, 0.01, 1.01, 0.30
80, 54805.76, 60423.67, -8888.51, -14909.55, -4453.72, 5678.84, 109.75, -28565.84, 0.01, 1.01, 0.30
81, 54829.95, 60447.70, -8852.45, -14882.44, -4423.81, 5704.81, 137.42, -28535.71, -0.00, 1.03, 0.30
82, 54813.09, 60431.45, -8847.38, -14896.16, -4459.13, 5689.35, 148.42, -28538.51, -0.00, 1.03, 0.30
83, 54804.71, 60416.00, -8841.92, -14916.30, -4477.08, 5657.18, 127.83, -28566.74, -0.00, 1.03, 0.30
84, 54803.04, 60425.28, -8871.32, -14914.27, -4467.17, 5671.71, 100.36, -28577.58, -0.00, 1.03, 0.30
85, 54821.14, 60457.29, -8859.63, -14888.47, -4455.73, 5703.25, 107.71, -28550.49, -0.00, 1.03, 0.30
86, 54821.54, 60453.58, -8835.24, -14890.11, -4452.47, 5696.97, 144.79, -28541.54, -0.01, 1.04, 0.31
87, 54817.74, 60438.80, -8821.92, -14906.47, -4448.62, 5685.43, 149.58, -28548.61, -0.01, 1.04, 0.31
88, 54804.20, 60448.48, -8838.93, -14891.33, -4441.87, 5701.13, 127.92, -28548.72, -0.01, 1.04, 0.31
89, 54821.77, 60473.58, -8830.10, -14861.88, -4409.91, 5725.98, 146.09, -28534.41, -0.01, 1.04, 0.31
90, 54811.86, 60458.58, -8823.73, -14876.31, -4423.63, 5706.15, 162.05, -28549.97, -0.01, 1.04, 0.31
91, 54783.88, 60420.65, -8856.61, -14906.27, -4465.48, 5679.89, 148.19, -28569.84, -0.01, 1.04, 0.31
92, 54779.12, 60416.50, -8878.31, -14909.51, -4464.67, 5684.45, 128.05, -28565.89, -0.01, 1.02, 0.31
93, 54817.00, 60460.98, -8840.09, -14872.98, -4413.04, 5722.11, 145.33, -28535.33, -0.01, 1.02, 0.31
94, 54825.00, 60468.57, -8829.43, -14865.18, -4424.10, 5725.35, 167.44, -28530.19, -0.01, 1.02, 0.31
95, 54794.32, 60432.59, -8862.98, -14900.50, -4465.45, 5690.35, 156.22, -28561.75, -0.01, 1.02, 0.31
96, 54785.26, 60432.59, -8889.42, -14908.66, -4454.19, 5686.60, 139.43, -28570.02, -0.01, 1.02, 0.31
97, 54819.53, 60474.54, -8864.81, -14869.16, -4415.21, 5725.87, 147.07, -28542.35, -0.01, 1.01, 0.29
98, 54815.53, 60465.85, -8855.29, -14867.73, -4424.75, 5726.07, 158.90, -28540.96, -0.01, 1.01, 0.29
99, 54791.03, 60435.85, -8874.63, -14897.91, -4455.55, 5695.54, 152.98, -28562.53, -0.01, 1.01, 0.29
100, 54785.51, 60423.89, -8891.43, -14910.71, -4465.52, 5682.66, 135.85, -28579.77, -0.01, 1.01, 0.29
101, 54798.38, 60454.11, -8862.73, -14880.16, -4428.08, 5712.52, 136.44, -28562.53, -0.01, 1.01, 0.29
102, 54815.66, 60472.78, -8834.10, -14862.01, -4409.31, 5730.00, 160.53, -28542.75, -0.01, 1.01, 0.29
103, 54795.14, 60439.76, -8840.43, -14888.85, -4441.94, 5701.28, 163.01, -28564.19, -0.01, 1.01, 0.29
104, 54756.36, 60406.79, -8881.22, -14919.39, -4471.58, 5669.54, 128.75, -28597.74, -0.01, 1.01, 0.29
105, 54778.60, 60433.95, -8877.26, -14897.64, -4438.34, 5695.29, 122.80, -28579.59, -0.01, 1.01, 0.29
106, 54810.70, 60467.34, -8843.42, -14871.38, -4412.61, 5720.10, 141.31, -28555.67, -0.01, 1.01, 0.29
107, 54792.59, 60448.55, -8833.07, -14883.18, -4432.71, 5708.99, 153.29, -28558.85, -0.01, 1.02, 0.28
108, 54753.34, 60412.36, -8882.49, -14923.41, -4472.58, 5666.73, 121.91, -28598.88, -0.01, 1.02, 0.28
109, 54778.36, 60446.29, -8861.91, -14888.59, -4438.45, 5701.13, 117.82, -28578.02, -0.01, 1.02, 0.28
110, 54812.02, 60479.01, -8825.76, -14850.07, -4408.68, 5735.46, 137.89, -28550.20, -0.01, 1.02, 0.28
111, 54807.75, 60471.37, -8827.24, -14870.01, -4431.97, 5716.19, 144.39, -28563.20, -0.01, 1.02, 0.28
112, 54773.13, 60442.80, -8846.55, -14891.25, -4456.49, 5696.72, 135.88, -28578.43, -0.01, 1.04, 0.29
113, 54767.00, 60441.17, -8853.24, -14879.69, -4441.65, 5704.52, 123.18, -28581.26, -0.01, 1.04, 0.29
114, 54796.48, 60466.36, -8842.82, -14857.58, -4418.90, 5722.74, 122.93, -28573.84, -0.01, 1.04, 0.29
115, 54780.91, 60460.04, -8834.59, -14861.38, -4431.48, 5718.81, 137.33, -28569.13, -0.01, 1.04, 0.29
116, 54754.15, 60439.52, -8857.88, -14885.75, -4461.72, 5699.31, 131.67, -28582.22, -0.01, 1.04, 0.29
117, 54776.23, 60460.68, -8862.69, -14877.10, -4443.19, 5712.75, 119.05, -28575.16, 0.01, 1.03, 0.28
118, 54815.21, 60496.43, -8855.09, -14839.57, -4409.19, 5748.44, 126.64, -28547.20, 0.01, 1.03, 0.28
119, 54806.79, 60487.64, -8839.38, -14845.11, -4415.61, 5742.68, 148.91, -28549.10, 0.01, 1.03, 0.28
120, 54773.66, 60452.66, -8866.85, -14885.10, -4455.60, 5702.73, 139.61, -28585.55, 0.01, 1.03, 0.28
121, 54757.28, 60434.11, -8903.84, -14898.71, -4464.47, 5689.55, 110.78, -28601.34, 0.01, 1.03, 0.28
122, 54786.56, 60471.70, -8895.93, -14867.87, -4434.23, 5724.46, 109.32, -28577.84, 0.01, 1.03, 0.28
123, 54803.57, 60481.79, -8868.46, -14852.76, -4424.82, 5734.70, 129.64, -28565.06, 0.02, 1.02, 0.27
124, 54779.18, 60446.02, -8877.13, -14880.61, -4451.82, 5702.42, 130.22, -28583.39, 0.02, 1.02, 0.27
125, 54771.67, 60441.55, -8896.26, -14886.24, -4452.11, 5695.96, 121.53, -28594.96, 0.02, 1.02, 0.27
126, 54798.90, 60463.23, -8900.00, -14867.62, -4427.70, 5710.31, 112.85, -28589.65, 0.02, 1.02, 0.27
127, 54811.37, 60474.43, -8880.73, -14853.85, -4419.92, 5720.30, 126.78, -28579.70, 0.02, 1.02, 0.27
128, 54783.05, 60458.47, -8882.61, -14872.89, -4445.63, 5704.37, 133.73, -28591.03, 0.02, 1.00, 0.26
129, 54766.11, 60434.67, -8920.02, -14894.02, -4463.29, 5681.14, 113.88, -28617.56, 0.02, 1.00, 0.26
130, 54774.33, 60447.45, -8920.40, -14876.61, -4443.26, 5698.04, 100.56, -28607.68, 0.02, 1.00, 0.26
131, 54792.77, 60478.86, -8882.40, -14847.75, -4414.49, 5728.06, 119.56, -28583.95, 0.02, 1.00, 0.26
132, 54782.58, 60457.98, -8885.53, -14867.20, -4438.72, 5713.13, 131.63, -28587.81, 0.02, 1.00, 0.26
133, 54761.19, 60432.81, -8912.04, -14889.93, -4462.75, 5695.29, 116.50, -28599.12, 0.03, 1.00, 0.26
134, 54763.02, 60446.04, -8918.26, -14879.38, -4447.06, 5707.72, 98.33, -28596.42, 0.03, 1.00, 0.26
135, 54784.86, 60475.77, -8902.21, -14855.59, -4431.39, 5726.83, 102.01, -28586.32, 0.03, 1.00, 0.26
136, 54783.48, 60466.09, -8889.78, -14860.42, -4442.88, 5718.34, 119.51, -28587.84, 0.03, 1.00, 0.26
137, 54755.94, 60433.86, -8906.95, -14891.94, -4462.86, 5691.51, 117.86, -28609.70, 0.03, 1.00, 0.26
138, 54759.92, 60432.99, -8917.05, -14889.75, -4456.36, 5691.89, 90.99, -28616.51, 0.03, 1.01, 0.26
139, 54767.61, 60456.80, -8904.93, -14870.97, -4434.97, 5705.73, 79.71, -28609.63, 0.03, 1.01, 0.26
140, 54759.13, 60452.32, -8894.63, -14877.39, -4442.57, 5698.15, 96.76, -28611.62, 0.03, 1.01, 0.26
141, 54745.28, 60433.21, -8884.80, -14892.56, -4451.46, 5685.01, 110.89, -28615.22, 0.03, 1.01, 0.26
142, 54730.93, 60427.34, -8896.78, -14894.53, -4450.59, 5685.99, 93.45, -28622.55, 0.03, 1.01, 0.26
143, 54753.08, 60457.73, -8878.40, -14861.27, -4415.68, 5715.07, 98.46, -28599.86, 0.02, 1.02, 0.26
144, 54753.86, 60453.55, -8871.21, -14860.71, -4429.94, 5716.82, 101.21, -28597.18, 0.02, 1.02, 0.26
145, 54720.24, 60427.87, -8879.03, -14887.60, -4458.37, 5689.93, 92.22, -28620.80, 0.02, 1.02, 0.26
146, 54705.85, 60433.93, -8891.72, -14892.45, -4452.80, 5687.24, 86.32, -28627.60, 0.02, 1.02, 0.26
147, 54727.84, 60462.36, -8888.37, -14871.89, -4417.24, 5710.92, 98.12, -28611.77, 0.02, 1.02, 0.26
148, 54744.07, 60473.45, -8879.95, -14861.85, -4404.61, 5720.03, 123.05, -28599.71, 0.02, 1.02, 0.26
149, 54723.08, 60435.94, -8890.56, -14897.48, -4445.02, 5687.42, 113.79, -28627.06, 0.02, 1.01, 0.25
150, 54704.84, 60424.90, -8899.70, -14904.05, -4448.65, 5682.35, 95.08, -28641.12, 0.02, 1.01, 0.25
151, 54706.52, 60436.86, -8912.18, -14890.35, -4428.69, 5693.06, 78.83, -28643.96, 0.02, 1.01, 0.25
152, 54716.87, 60445.89, -8889.56, -14881.39, -4417.42, 5701.33, 91.66, -28636.21, 0.02, 1.01, 0.25
153, 54705.54, 60409.14, -8887.19, -14902.85, -4448.91, 5685.84, 104.07, -28637.95, 0.02, 1.01, 0.25
154, 54678.73, 60388.29, -8908.31, -14918.45, -4462.84, 5673.90, 89.83, -28652.05, 0.00, 1.01, 0.25
155, 54691.50, 60409.39, -8917.72, -14907.45, -4447.35, 5684.50, 72.02, -28653.30, 0.00, 1.01, 0.25
156, 54712.06, 60435.83, -8895.35, -14885.81, -4426.36, 5706.29, 80.47, -28636.23, 0.00, 1.01, 0.25
157, 54691.99, 60414.33, -8893.20, -14901.82, -4454.30, 5687.78, 79.82, -28648.19, 0.00, 1.01, 0.25
158, 54658.06, 60384.78, -8927.20, -14933.87, -4484.99, 5652.64, 61.09, -28675.61, 0.00, 1.01, 0.25
159, 54670.38, 60406.13, -8937.10, -14920.26, -4458.82, 5667.91, 63.05, -28665.75, -0.00, 1.01, 0.26
160, 54698.83, 60433.50, -8899.77, -14884.41, -4425.22, 5701.91, 85.29, -28633.66, -0.00, 1.01, 0.26
161, 54671.94, 60414.15, -8884.13, -14890.89, -4436.82, 5698.44, 101.52, -28631.24, -0.00, 1.01, 0.26
162, 54644.45, 60390.16, -8901.54, -14914.58, -4465.30, 5677.54, 98.26, -28647.87, -0.00, 1.01, 0.26
163, 54661.37, 60409.27, -8911.66, -14905.91, -4450.19, 5682.48, 83.46, -28656.32, -0.00, 1.01, 0.26
164, 54709.87, 60445.91, -8878.31, -14866.97, -4409.71, 5722.38, 99.29, -28629.81, -0.00, 1.01, 0.26
165, 54706.07, 60437.10, -8870.85, -14880.61, -4426.16, 5710.67, 112.07, -28628.18, -0.00, 1.01, 0.26
166, 54657.55, 60392.80, -8902.61, -14918.94, -4469.01, 5674.39, 96.13, -28659.38, -0.00, 1.01, 0.26
